time (s)	theta (A)	maj axis/z0	min axis/z0	crossing#mod 255
4535.255040	90.901199	1.051805	0.006363	133
4537.339392	90.888252	1.051933	0.005999	135
4539.424256	90.871376	1.051688	0.006146	137
4541.509120	90.864571	1.051368	0.006749	139
4543.593984	90.864922	1.051571	0.006295	141
4545.679360	90.925179	1.051133	0.006304	143
4547.764224	90.929008	1.051903	0.006512	145
4549.849088	90.918533	1.053737	0.006500	147
4551.934464	90.987457	1.053606	0.006668	149
4554.020352	90.938141	1.054743	0.006383	151
4556.105216	90.950340	1.053818	0.006647	153
4558.190592	90.878960	1.053408	0.006510	155
4560.274944	90.884109	1.053472	0.006106	157
4562.359808	90.820862	1.054372	0.006204	159
4564.444160	90.757622	1.055162	0.006419	161
4566.528512	90.726830	1.054758	0.006387	163
4568.612864	90.738831	1.054872	0.006124	165
4570.697728	90.671051	1.054616	0.005645	167
4572.782080	90.740723	1.054471	0.005954	169
4574.865920	90.676758	1.056748	0.006426	171
4576.949760	90.693062	1.056344	0.006489	173
4579.034112	90.698730	1.056645	0.006495	175
4581.117440	90.753159	1.056443	0.006520	177
4583.201280	90.756279	1.056379	0.006643	179
4585.284608	90.796066	1.056405	0.006460	181
4587.367936	90.843353	1.055731	0.006501	183
4589.451776	90.903275	1.054596	0.006539	185
4591.535616	90.902054	1.053433	0.006544	187
4593.618944	90.900795	1.052212	0.006424	189
4595.702272	90.899460	1.052935	0.006310	191
4597.786112	90.854233	1.053199	0.006262	193
4599.870464	90.831772	1.053197	0.006095	195
4601.954816	90.803391	1.052823	0.006154	197
4604.039168	90.784859	1.051416	0.006251	199
4606.123520	90.743347	1.051959	0.006027	201
4608.207872	90.761406	1.052056	0.005927	203
4610.292736	90.734306	1.052970	0.006052	205
4612.377600	90.761299	1.053161	0.006154	207
4614.461952	90.783989	1.053591	0.005818	209
4616.546816	90.764809	1.054064	0.006088	211
4618.632192	90.791359	1.053806	0.006050	213
4620.717568	90.786652	1.053872	0.006006	215
4622.802944	90.779083	1.055347	0.005900	217
4624.887808	90.798912	1.055349	0.005878	219
4626.973184	90.802399	1.055273	0.005916	221
4629.058048	90.758194	1.055953	0.005816	223
4631.142400	90.730293	1.055293	0.005784	225
4633.227776	90.692413	1.055996	0.005852	227
4635.311616	90.626869	1.056272	0.005811	229
4637.396480	90.640167	1.056713	0.005835	231
4639.480832	90.578102	1.057335	0.005814	233
4641.565184	90.581718	1.056448	0.005855	235
4643.649024	90.572426	1.056982	0.005972	237
4645.733376	90.532730	1.058084	0.006270	239
4647.817728	90.518105	1.057701	0.005689	241
4649.902080	90.622139	1.055816	0.005823	243
4651.985408	90.620644	1.054979	0.005468	245
4654.069248	90.659706	1.055291	0.006019	247
4656.153088	90.696701	1.054878	0.006096	249
4658.236416	90.686218	1.056513	0.006118	251
4660.320256	90.703880	1.056037	0.006423	253
4662.403584	90.731209	1.055588	0.006053	255
4664.486912	90.734451	1.055424	0.006023	1
4666.571264	90.718109	1.054752	0.006033	3
4668.655104	90.700195	1.055016	0.005883	5
4670.738944	90.679520	1.055375	0.005785	7
4672.823296	90.701126	1.054480	0.005759	9
4674.907648	90.664627	1.053142	0.005736	11
4676.992000	90.626686	1.053449	0.005995	13
4679.076352	90.638016	1.053131	0.005983	15
4681.161216	90.614883	1.053913	0.005969	17
4683.246080	90.611832	1.054147	0.006040	19
4685.330944	90.648148	1.055116	0.006040	21
4687.415808	90.656815	1.054238	0.006260	23
4689.501184	90.649055	1.054071	0.005979	25
4691.585536	90.695892	1.054049	0.006211	27
4693.670400	90.693336	1.054320	0.006182	29
4695.755776	90.654144	1.054983	0.006134	31
4697.841152	90.651962	1.055861	0.006224	33
4699.926016	90.607231	1.055804	0.006137	35
4702.010880	90.566246	1.055711	0.006135	37
4704.095232	90.548050	1.055894	0.006238	39
4706.179584	90.511765	1.054853	0.006345	41
4708.264448	90.488403	1.055957	0.006229	43
4710.348800	90.436714	1.055468	0.006098	45
4712.432640	90.470634	1.055821	0.006263	47
4714.516992	90.411621	1.056067	0.006377	49
4716.600832	90.449165	1.056982	0.006399	51
4718.685184	90.429474	1.056471	0.006491	53
4720.769024	90.471237	1.056726	0.006591	55
4722.852352	90.477470	1.056696	0.006521	57
4724.936704	90.514801	1.056898	0.006509	59
4727.020544	90.544487	1.053944	0.006633	61
4729.103872	90.594543	1.053795	0.006354	63
4731.187712	90.603859	1.053183	0.006522	65
4733.271552	90.630211	1.053114	0.006422	67
4735.354880	90.609604	1.053360	0.006433	69
4737.438720	90.601799	1.053427	0.006508	71
4739.522560	90.589035	1.053119	0.006478	73
4741.606400	90.569221	1.051650	0.006394	75
4743.690752	90.559052	1.051087	0.006201	77
4745.775104	90.547035	1.050760	0.006059	79
4747.859456	90.531151	1.050893	0.005981	81
4749.944320	90.547462	1.050591	0.006098	83
4752.028672	90.501793	1.050426	0.006199	85
4754.113536	90.536766	1.051767	0.005972	87
4756.197888	90.524994	1.050299	0.006789	89
4758.282752	90.489861	1.051805	0.006460	91
4760.367616	90.537216	1.052792	0.006225	93
4762.452480	90.535736	1.050592	0.006320	95
4764.537856	90.542854	1.052240	0.005929	97
4766.623232	90.567978	1.053318	0.005626	99
4768.708096	90.520706	1.054364	0.005899	101
4770.792960	90.493843	1.052588	0.006157	103
4772.877312	90.504837	1.052351	0.006054	105
4774.961664	90.539742	1.053564	0.006071	107
4777.046016	90.382439	1.053887	0.006655	109
4779.130368	90.364204	1.055276	0.005710	111
4781.215232	90.347374	1.054368	0.006570	113
4783.299584	90.343002	1.055622	0.006107	115
4785.383936	90.403160	1.056099	0.005828	117
4787.467776	90.368362	1.056329	0.006277	119
4789.552128	90.378822	1.056098	0.006360	121
4791.635456	90.387253	1.056374	0.006406	123
4793.719808	90.402473	1.055777	0.006413	125
4795.803136	90.435341	1.055648	0.006690	127
4797.886976	90.456749	1.055140	0.006305	129
4799.970304	90.459503	1.056348	0.006370	131
4802.054144	90.512207	1.056174	0.006427	133
4804.137984	90.497620	1.055476	0.006583	135
4806.221824	90.482422	1.054989	0.006404	137
4808.305664	90.481331	1.052013	0.006755	139
4810.389504	90.466530	1.052764	0.006569	141
4812.473344	90.440559	1.052544	0.006258	143
4814.558208	90.433990	1.052692	0.006580	145
4816.642048	90.423836	1.052050	0.006511	147
4818.726912	90.422241	1.052053	0.006649	149
4820.811264	90.442024	1.051405	0.006587	151
4822.896128	90.437469	1.051788	0.006606	153
4824.980480	90.444267	1.052503	0.006590	155
4827.065856	90.440491	1.053006	0.006544	157
4829.150720	90.455582	1.052797	0.006578	159
4831.235072	90.456261	1.053082	0.006288	161
4833.320448	90.485649	1.050082	0.006770	163
4835.405312	90.452698	1.051834	0.006438	165
4837.490176	90.407700	1.052279	0.006621	167
4839.575040	90.418526	1.053721	0.007042	169
4841.659904	90.369835	1.053142	0.006547	171
4843.744256	90.414024	1.052624	0.006086	173
4845.828608	90.330109	1.053678	0.006611	175
4847.913472	90.301521	1.053917	0.006410	177
4849.997312	90.290222	1.053710	0.006531	179
4852.081664	90.313797	1.053265	0.006557	181
4854.166016	90.299507	1.053455	0.006433	183
4856.250368	90.265984	1.053448	0.006602	185
4858.334208	90.278976	1.054221	0.006260	187
4860.418560	90.305710	1.055302	0.006574	189
4862.502400	90.325081	1.056808	0.006660	191
4864.586240	90.332550	1.056004	0.006695	193
4866.670080	90.356903	1.056259	0.006507	195
4868.753920	90.377060	1.055679	0.006498	197
4870.837760	90.400650	1.055224	0.006525	199
4872.921088	90.402046	1.054986	0.006583	201
4875.004928	90.391937	1.055210	0.006299	203
4877.088768	90.394440	1.054190	0.006366	205
4879.173120	90.377441	1.054770	0.006533	207
4881.257472	90.370079	1.054408	0.006633	209
4883.341824	90.340515	1.053466	0.006626	211
4885.426176	90.346336	1.053520	0.006542	213
4887.510528	90.325005	1.053020	0.006622	215
4889.594368	90.342819	1.052971	0.006751	217
4891.679232	90.321503	1.052614	0.006519	219
4893.763584	90.338974	1.052796	0.006625	221
4895.848960	90.346512	1.053102	0.006907	223
4897.933824	90.365211	1.052739	0.006717	225
4900.018176	90.327202	1.052580	0.006989	227
4902.103040	90.355019	1.053354	0.006692	229
4904.187904	90.355011	1.053868	0.006561	231
4906.272768	90.366211	1.053457	0.006848	233
4908.358144	90.329338	1.052885	0.007005	235
4910.442496	90.317238	1.052424	0.006794	237
4912.526848	90.292442	1.053459	0.006875	239
4914.611200	90.270340	1.054129	0.006838	241
4916.695552	90.243111	1.056029	0.006861	243
4918.780416	90.248291	1.056105	0.006938	245
4920.864768	90.190186	1.056208	0.006980	247
4922.948608	90.231262	1.055869	0.007353	249
4925.032960	90.209503	1.055973	0.007101	251
4927.117312	90.175980	1.056128	0.007168	253
4929.201152	90.234428	1.055496	0.007305	255
4931.284992	90.266510	1.055785	0.007537	1
4933.368832	90.271141	1.055473	0.007372	3
4935.453184	90.290588	1.055732	0.007057	5
4937.536512	90.299721	1.056123	0.007029	7
4939.620352	90.298973	1.056260	0.007005	9
4941.704192	90.331497	1.055240	0.007339	11
4943.788544	90.326195	1.055187	0.006963	13
4945.872384	90.314140	1.055516	0.007061	15
4947.956224	90.308807	1.054177	0.007167	17
4950.040576	90.293388	1.053847	0.006796	19
4952.124928	90.313553	1.053293	0.006707	21
4954.208768	90.275040	1.053184	0.006728	23
4956.293632	90.323692	1.052532	0.006823	25
4958.377984	90.305115	1.052612	0.006781	27
4960.462336	90.297935	1.052512	0.006730	29
4962.547200	90.267570	1.052653	0.006759	31
4964.632064	90.276939	1.052961	0.006757	33
4966.716416	90.316483	1.053082	0.006814	35
4968.800768	90.284607	1.053636	0.006747	37
4970.885632	90.303902	1.054883	0.006925	39
4972.970496	90.244759	1.054627	0.007175	41
4975.055360	90.250854	1.054942	0.006947	43
4977.140224	90.274445	1.054419	0.006997	45
4979.224576	90.218887	1.054536	0.006897	47
4981.308928	90.240524	1.054856	0.007020	49
4983.393280	90.210236	1.054825	0.006610	51
4985.478656	90.214119	1.053832	0.007127	53
4987.562496	90.184830	1.054798	0.007065	55
4989.647360	90.201660	1.053904	0.007175	57
4991.731200	90.167984	1.055009	0.007050	59
4993.815552	90.154495	1.055109	0.007180	61
4995.899904	90.171791	1.054618	0.007208	63
4997.983744	90.180153	1.054710	0.007031	65
5000.067584	90.203011	1.054970	0.007087	67
5002.151424	90.186508	1.055809	0.006940	69
5004.235776	90.199799	1.055374	0.006909	71
5006.319616	90.231506	1.056322	0.006928	73
5008.403456	90.244164	1.055914	0.006851	75
5010.487296	90.258636	1.053990	0.006797	77
5012.571136	90.255600	1.054329	0.006969	79
5014.655488	90.271950	1.054319	0.007003	81
5016.738816	90.245583	1.054230	0.006982	83
5018.823168	90.238876	1.053360	0.006841	85
5020.907520	90.227531	1.052728	0.006789	87
5022.991872	90.248589	1.053281	0.006996	89
5025.076224	90.217880	1.053939	0.006855	91
5027.160576	90.208351	1.053877	0.006824	93
5029.245440	90.217720	1.053770	0.006904	95
5031.329792	90.211624	1.052560	0.006897	97
5033.414656	90.211082	1.052976	0.006683	99
5035.499008	90.210342	1.054506	0.006795	101
5037.583872	90.219551	1.053974	0.006715	103
5039.668736	90.199867	1.054409	0.006805	105
5041.753600	90.204384	1.054568	0.006606	107
5043.838464	90.194656	1.054409	0.006669	109
5045.922304	90.165611	1.052597	0.006913	111
5048.007168	90.177414	1.053846	0.006593	113
5050.092032	90.160538	1.054672	0.006820	115
5052.176896	90.152679	1.054588	0.006760	117
5054.261248	90.112862	1.055057	0.006581	119
5056.345088	90.108948	1.054847	0.006705	121
5058.429440	90.123924	1.055355	0.006689	123
5060.513792	90.113403	1.053187	0.006576	125
5062.598144	90.111595	1.054778	0.006664	127
5064.682496	90.103981	1.054446	0.006761	129
5066.766336	90.116837	1.054490	0.006556	131
5068.850176	90.132980	1.055100	0.006478	133
5070.934528	90.152626	1.055824	0.006413	135
5073.017856	90.133759	1.055996	0.006411	137
5075.102720	90.138359	1.055719	0.006386	139
5077.186560	90.171509	1.055613	0.006346	141
5079.270400	90.152611	1.056225	0.006116	143
5081.353728	90.191566	1.055161	0.007329	145
5083.438080	90.176559	1.053625	0.006270	147
5085.522432	90.198830	1.053386	0.006138	149
5087.606272	90.167404	1.052507	0.006323	151
5089.690624	90.172302	1.052496	0.006396	153
5091.774464	90.160652	1.052427	0.006463	155
5093.858816	90.160919	1.051792	0.006266	157
5095.943168	90.145531	1.052832	0.006363	159
5098.028032	90.150047	1.053506	0.006373	161
5100.113408	90.156563	1.053333	0.006452	163
5102.197248	90.101730	1.053849	0.006402	165
5104.281600	90.128731	1.053187	0.006522	167
5106.366976	90.129387	1.054644	0.006695	169
5108.451840	90.129089	1.053979	0.006511	171
5110.536704	90.175964	1.055577	0.006822	173
5112.621056	90.069397	1.056117	0.006247	175
5114.705920	90.099060	1.056833	0.006406	177
5116.790784	90.061119	1.055844	0.006569	179
5118.875136	90.081291	1.056500	0.006680	181
5120.958976	90.007118	1.056065	0.006485	183
5123.044352	90.015007	1.057073	0.006981	185
5125.129216	90.040009	1.057142	0.006628	187
5127.213056	90.023651	1.054251	0.006442	189
5129.297408	90.019951	1.054957	0.006460	191
5131.382272	90.000450	1.055832	0.006341	193
5133.466112	90.006119	1.055159	0.006578	195
5135.549952	89.988235	1.054928	0.006533	197
5137.634304	90.042847	1.055143	0.006547	199
5139.718144	90.019653	1.055577	0.006622	201
5141.803008	90.030922	1.056517	0.006503	203
5143.886336	90.035172	1.055416	0.006617	205
5145.970176	90.040710	1.055912	0.006564	207
5148.054528	90.031555	1.054883	0.006541	209
5150.137856	90.063515	1.055529	0.006518	211
5152.222208	90.054344	1.055194	0.006588	213
5154.306048	90.079887	1.054788	0.006547	215
5156.390400	90.055321	1.053846	0.006304	217
5158.474240	90.052200	1.052251	0.006436	219
5160.558592	90.050064	1.053151	0.006376	221
5162.642944	90.056541	1.052344	0.006300	223
5164.727808	90.041084	1.052527	0.006378	225
5166.811648	90.040207	1.052255	0.006233	227
5168.896000	90.013344	1.052551	0.006363	229
5170.980864	90.015015	1.053007	0.006392	231
5173.065216	89.998909	1.052520	0.006328	233
5175.149568	90.041161	1.052812	0.006526	235
5177.234432	90.023384	1.053540	0.006757	237
5179.318784	90.031837	1.053830	0.006777	239
5181.403648	90.022240	1.055091	0.006943	241
5183.488512	90.009041	1.054816	0.007046	243
5185.572864	89.994186	1.054918	0.006760	245
5187.657728	89.989716	1.056509	0.006750	247
5189.743104	89.983719	1.055985	0.006517	249
5191.827456	89.953804	1.055883	0.006854	251
5193.911808	89.963112	1.056818	0.006724	253
5195.996160	89.932236	1.056196	0.006850	255
5198.080512	89.932114	1.056105	0.007023	1
5200.164864	89.888901	1.056120	0.006698	3
5202.248704	89.929222	1.055653	0.006904	5
5204.333056	89.912750	1.054440	0.007106	7
5206.417408	89.954323	1.054980	0.006685	9
5208.500736	89.953339	1.054719	0.006220	11
5210.585088	89.973663	1.055902	0.007132	13
5212.669440	89.883522	1.056976	0.006841	15
5214.753792	90.005478	1.056342	0.006516	17
5216.838144	89.969269	1.055974	0.007122	19
5218.921984	89.963730	1.055944	0.006624	21
5221.005824	89.985542	1.054982	0.006495	23
5223.089664	89.987625	1.054438	0.007126	25
5225.174016	89.983139	1.053345	0.007010	27
5227.257856	89.978752	1.052962	0.007034	29
5229.342208	89.987640	1.053166	0.006428	31
5231.426048	90.005188	1.051664	0.006669	33
5233.510912	90.002724	1.052853	0.007023	35
5235.595264	89.969589	1.052486	0.006897	37
5237.679616	89.953758	1.052747	0.007054	39
5239.763968	89.955688	1.052745	0.006861	41
5241.848320	89.938316	1.053367	0.006969	43
5243.933184	89.955765	1.054181	0.006950	45
5246.017536	89.938324	1.054186	0.007000	47
5248.102912	89.947243	1.054461	0.006927	49
5250.186752	89.942627	1.054550	0.006833	51
5252.272128	89.944839	1.053940	0.006882	53
5254.356480	89.933388	1.054934	0.006695	55
5256.441344	89.915558	1.053641	0.006899	57
5258.525696	89.917397	1.054361	0.007216	59
5260.610560	89.921692	1.054077	0.007068	61
5262.694912	89.867256	1.054094	0.006707	63
5264.779776	89.874435	1.054649	0.006714	65
5266.864128	89.870651	1.055196	0.006843	67
5268.948480	89.863411	1.056412	0.006854	69
5271.032320	89.851044	1.057103	0.006771	71
5273.116672	89.845810	1.057984	0.006655	73
5275.201024	89.819084	1.058453	0.006315	75
5277.284864	89.878365	1.057684	0.006571	77
5279.369728	89.847382	1.056979	0.006805	79
5281.453568	89.860840	1.056555	0.006881	81
5283.537920	89.861313	1.056704	0.006918	83
5285.621760	89.870399	1.056930	0.006963	85
5287.706112	89.872597	1.056063	0.006272	87
5289.789440	89.876259	1.056183	0.006988	89
5291.873280	89.899139	1.055818	0.007041	91
5293.958144	89.934738	1.056509	0.006120	93
5296.041472	89.915382	1.055588	0.007201	95
5298.125824	89.939560	1.055232	0.006991	97
5300.210176	89.877533	1.055683	0.007265	99
5302.294016	89.901253	1.054532	0.007384	101
5304.378880	89.894005	1.054202	0.007261	103
5306.463232	89.908775	1.053611	0.007102	105
5308.547584	89.876694	1.053940	0.007070	107
5310.631936	89.889488	1.053195	0.006946	109
5312.716800	89.849068	1.055413	0.007073	111
5314.800640	89.881058	1.055300	0.007033	113
5316.885504	89.880081	1.055116	0.007100	115
5318.969856	89.865494	1.055288	0.007106	117
5321.054720	89.877670	1.055219	0.007025	119
5323.139072	89.827614	1.054695	0.006915	121
5325.223424	89.883850	1.054809	0.007041	123
5327.308288	89.816528	1.055732	0.006738	125
5329.393152	89.873695	1.055887	0.006709	127
5331.477504	89.847832	1.056238	0.007210	129
5333.561856	89.820442	1.056934	0.007108	131
5335.646208	89.823158	1.056281	0.007111	133
5337.730560	89.808136	1.057783	0.007055	135
5339.814912	89.786453	1.057719	0.007159	137
5341.899776	89.764839	1.058571	0.007119	139
5343.984128	89.827766	1.055998	0.007281	141
5346.067968	89.803658	1.056596	0.007699	143
5348.152320	89.777283	1.057173	0.007882	145
5350.236672	89.809479	1.058349	0.006886	147
5352.320512	89.769829	1.058871	0.007124	149
5354.404864	89.777893	1.058967	0.007122	151
5356.489216	89.797295	1.059071	0.007150	153
5358.573056	89.810989	1.057949	0.007034	155
5360.657408	89.815063	1.057248	0.007079	157
5362.741248	89.799294	1.056475	0.007095	159
5364.825088	89.830338	1.056648	0.006851	161
5366.908928	89.780060	1.057128	0.006723	163
5368.993792	89.860260	1.055708	0.007214	165
5371.077632	89.805077	1.055162	0.007142	167
5373.161984	89.845741	1.055623	0.006796	169
5375.245824	89.791840	1.056033	0.007314	171
5377.330176	89.805145	1.056259	0.007037	173
5379.414528	89.797264	1.056740	0.006913	175
5381.498880	89.799469	1.057168	0.007044	177
5383.583232	89.795158	1.056507	0.007116	179
5385.667584	89.750473	1.056061	0.006682	181
5387.752448	89.782944	1.056633	0.007053	183
5389.836800	89.776093	1.054996	0.007059	185
5391.921664	89.751366	1.056171	0.006527	187
5394.006016	89.787506	1.056585	0.007016	189
5396.090880	89.767204	1.056811	0.006843	191
5398.175232	89.767578	1.055805	0.007002	193
5400.260096	89.741005	1.056496	0.006988	195
5402.343936	89.757721	1.057391	0.006992	197
5404.428800	89.761452	1.055861	0.007084	199
5406.513664	89.756241	1.056952	0.007053	201
5408.598016	89.740273	1.056149	0.007099	203
5410.681856	89.735542	1.056937	0.007114	205
5412.766208	89.700516	1.057159	0.006462	207
5414.851072	89.742142	1.055855	0.007216	209
5416.934912	89.710258	1.056296	0.007048	211
5419.018752	89.742493	1.055394	0.007265	213
5421.103616	89.682556	1.056086	0.006955	215
5423.187456	89.723595	1.056051	0.007084	217
5425.271808	89.722878	1.055524	0.007028	219
5427.355648	89.721199	1.055684	0.006967	221
5429.440000	89.733864	1.055989	0.007048	223
5431.524352	89.735062	1.055861	0.007072	225
5433.607680	89.740410	1.055856	0.007262	227
5435.692544	89.717163	1.056422	0.007205	229
5437.776896	89.730995	1.056509	0.007094	231
5439.861248	89.731529	1.056288	0.007299	233
5441.945088	89.687546	1.056322	0.007085	235
5444.029440	89.752769	1.055362	0.007073	237
5446.113792	89.751457	1.054345	0.006956	239
5448.197632	89.722061	1.054969	0.007060	241
5450.282496	89.707970	1.054366	0.006912	243
5452.366848	89.726074	1.054374	0.007135	245
5454.451200	89.725868	1.054222	0.007115	247
5456.535552	89.713341	1.054578	0.007024	249
5458.620416	89.746796	1.054441	0.007093	251
5460.705280	89.678360	1.055306	0.007064	253
5462.789632	89.688568	1.055683	0.006879	255
5464.874496	89.682884	1.055630	0.007019	1
5466.958848	89.690514	1.055466	0.006859	3
5469.043200	89.691315	1.055640	0.007080	5
5471.127040	89.668915	1.056097	0.007213	7
5473.211904	89.681671	1.056702	0.006934	9
5475.296256	89.660820	1.057696	0.005893	11
5477.381120	89.665314	1.057498	0.006965	13
5479.464960	89.646942	1.057420	0.006712	15
5481.549312	89.640335	1.056987	0.006837	17
5483.634176	89.635574	1.057444	0.006825	19
5485.718016	89.617821	1.057611	0.006873	21
5487.802368	89.631645	1.057698	0.006890	23
5489.887232	89.626831	1.057606	0.007020	25
5491.970560	89.643661	1.057117	0.006955	27
5494.055424	89.613068	1.057144	0.006846	29
5496.139776	89.627899	1.056821	0.006941	31
5498.223616	89.641335	1.055945	0.006695	33
5500.307456	89.707672	1.055612	0.007037	35
5502.392320	89.644691	1.056224	0.007108	37
5504.476160	89.628548	1.056302	0.007011	39
5506.560512	89.646347	1.055962	0.006932	41
5508.644352	89.641548	1.055670	0.007096	43
5510.728704	89.624985	1.056489	0.007001	45
5512.813056	89.564262	1.056665	0.007475	47
5514.897408	89.645058	1.056139	0.007255	49
5516.981760	89.615723	1.056207	0.006847	51
5519.066112	89.644356	1.055212	0.007010	53
5521.149952	89.616432	1.054892	0.007029	55
5523.234816	89.620331	1.054778	0.006966	57
5525.319168	89.615463	1.054992	0.006881	59
5527.403520	89.645874	1.054841	0.006825	61
5529.487872	89.635605	1.054940	0.007041	63
5531.572224	89.605881	1.055197	0.006939	65
5533.657088	89.598495	1.055988	0.006910	67
5535.741440	89.594475	1.056170	0.006995	69
5537.826304	89.599174	1.056048	0.006853	71
5539.910656	89.577522	1.054712	0.007015	73
5541.995008	89.602142	1.055673	0.006792	75
5544.079360	89.589325	1.055918	0.006823	77
5546.164224	89.592575	1.056985	0.006864	79
5548.248064	89.557800	1.057187	0.006894	81
5550.332928	89.572884	1.056523	0.006801	83
5552.417280	89.570801	1.055954	0.006703	85
5554.501632	89.539337	1.056071	0.006854	87
5556.585472	89.495438	1.056125	0.006685	89
5558.669824	89.564651	1.056350	0.006758	91
5560.754176	89.556305	1.056849	0.006774	93
5562.838528	89.536247	1.056587	0.006957	95
5564.922880	89.556084	1.055692	0.007060	97
5567.006720	89.561150	1.056033	0.006956	99
5569.091072	89.560844	1.055931	0.006950	101
5571.175424	89.593361	1.055769	0.006884	103
5573.259776	89.582474	1.055359	0.007022	105
5575.343616	89.555588	1.055168	0.006922	107
5577.427968	89.567848	1.055266	0.006984	109
5579.512320	89.564720	1.054952	0.006956	111
5581.596672	89.550484	1.055688	0.006910	113
5583.680512	89.536919	1.055644	0.006795	115
5585.765376	89.581734	1.054509	0.006754	117
5587.849728	89.619743	1.053646	0.006421	119
5589.933568	89.642319	1.053167	0.006901	121
5592.018432	89.530655	1.053878	0.006853	123
5594.102272	89.531784	1.053388	0.006640	125
5596.187136	89.559486	1.053570	0.006588	127
5598.271488	89.546257	1.053442	0.006712	129
5600.355840	89.532791	1.054186	0.006707	131
5602.440704	89.548691	1.055032	0.006269	133
5604.525056	89.517731	1.054909	0.006804	135
5606.609408	89.516365	1.053646	0.006766	137
5608.693760	89.535530	1.053239	0.006841	139
5610.778112	89.529541	1.051919	0.006785	141
5612.862464	89.512917	1.053148	0.006711	143
5614.947328	89.504280	1.053707	0.006699	145
5617.031680	89.499290	1.053799	0.006775	147
5619.116032	89.487679	1.054812	0.006792	149
5621.200896	89.472679	1.055669	0.006659	151
5623.284736	89.481071	1.056560	0.006816	153
5625.369088	89.485924	1.056298	0.006817	155
5627.453440	89.494423	1.054504	0.007069	157
5629.537792	89.489052	1.055930	0.007088	159
5631.622144	89.491882	1.056126	0.007006	161
5633.705984	89.484024	1.057522	0.006825	163
5635.790848	89.462929	1.057388	0.006970	165
5637.874688	89.465439	1.056774	0.007004	167
5639.959040	89.480942	1.055699	0.006991	169
5642.043392	89.479126	1.055142	0.006878	171
5644.127744	89.498642	1.055773	0.007045	173
5646.211584	89.471947	1.056486	0.006949	175
5648.295936	89.478165	1.057260	0.006891	177
5650.380288	89.472832	1.054272	0.006988	179
5652.464640	89.444077	1.055548	0.006640	181
5654.548992	89.465828	1.055547	0.006861	183
5656.633344	89.417961	1.055387	0.006230	185
5658.717184	89.487640	1.053225	0.006698	187
5660.802048	89.473175	1.055026	0.006525	189
5662.885888	89.463974	1.054299	0.006442	191
5664.970240	89.446671	1.055500	0.006630	193
5667.055104	89.467178	1.055186	0.006217	195
5669.138944	89.442787	1.055046	0.006690	197
5671.223808	89.457817	1.054728	0.006801	199
5673.308160	89.417343	1.054294	0.006876	201
5675.392512	89.445587	1.055097	0.006727	203
5677.477376	89.450058	1.055706	0.006608	205
5679.561216	89.478828	1.055076	0.007104	207
5681.646080	89.436058	1.055232	0.006945	209
5683.730944	89.415367	1.056298	0.006664	211
5685.814784	89.412582	1.056921	0.005845	213
5687.899136	89.454788	1.056649	0.006377	215
5689.983488	89.401276	1.055811	0.006766	217
5692.067840	89.395943	1.056344	0.006685	219
5694.152192	89.388321	1.056038	0.006544	221
5696.236544	89.409050	1.056343	0.006614	223
5698.320896	89.417564	1.055441	0.006766	225
5700.405248	89.408279	1.055561	0.006899	227
5702.489088	89.311928	1.056267	0.006739	229
5704.573440	89.385544	1.056137	0.006853	231
5706.657792	89.366890	1.054995	0.006651	233
5708.742144	89.367790	1.055232	0.006428	235
5710.826496	89.382965	1.055601	0.006420	237
5712.910848	89.387291	1.056363	0.006613	239
5714.994688	89.373001	1.057122	0.006625	241
5717.079040	89.395317	1.054308	0.006657	243
5719.163392	89.378212	1.053704	0.006367	245
5721.247232	89.387581	1.054367	0.006512	247
5723.332096	89.376183	1.055250	0.006546	249
5725.416448	89.379669	1.054571	0.006583	251
5727.500288	89.380058	1.055317	0.006598	253
5729.585152	89.358856	1.055478	0.006556	255
5731.669504	89.366837	1.055579	0.006753	1
5733.753856	89.375801	1.054344	0.005967	3
5735.838208	89.370506	1.056102	0.006539	5
5737.922560	89.337677	1.055307	0.006797	7
5740.006912	89.317581	1.055770	0.006194	9
5742.091264	89.344994	1.055771	0.006684	11
5744.175616	89.338707	1.055377	0.006861	13
5746.260480	89.362984	1.056373	0.006884	15
5748.344320	89.342812	1.056225	0.006844	17
5750.428672	89.358627	1.056049	0.007031	19
5752.514048	89.346954	1.056695	0.006584	21
5754.597888	89.341209	1.056212	0.006808	23
5756.682240	89.328232	1.056512	0.006995	25
5758.767104	89.410728	1.056955	0.006823	27
5760.851456	89.282928	1.056596	0.007139	29
5762.935808	89.303833	1.056192	0.006982	31
5765.020160	89.307259	1.056950	0.006904	33
5767.104000	89.295967	1.056585	0.007075	35
5769.188352	89.318443	1.054804	0.007134	37
5771.272704	89.296555	1.055278	0.007031	39
5773.357056	89.312408	1.055822	0.007002	41
5775.441408	89.310959	1.055917	0.007007	43
5777.525248	89.318901	1.055706	0.006915	45
5779.610112	89.297974	1.056502	0.006874	47
5781.693952	89.312447	1.056285	0.006915	49
5783.778304	89.289879	1.055129	0.006883	51
5785.862656	89.307922	1.055349	0.006768	53
5787.947008	89.322678	1.055683	0.006353	55
5790.030848	89.306572	1.054257	0.006845	57
5792.115712	89.327408	1.055190	0.006736	59
5794.199040	89.328392	1.053216	0.006699	61
5796.283392	89.321648	1.053627	0.006946	63
5798.367744	89.287758	1.054602	0.006794	65
5800.452096	89.306107	1.054710	0.007143	67
5802.536960	89.244553	1.054880	0.007123	69
5804.621312	89.273369	1.055337	0.006948	71
5806.705664	89.246826	1.055230	0.006881	73
5808.790016	89.276329	1.055761	0.006738	75
5810.874880	89.278313	1.056297	0.006790	77
5812.959232	89.265961	1.056214	0.006759	79
5815.043584	89.229805	1.056645	0.006841	81
5817.127936	89.243431	1.056927	0.006852	83
5819.212288	89.243820	1.056299	0.006892	85
5821.296640	89.237877	1.055213	0.006838	87
5823.381504	89.231590	1.057302	0.006723	89
5825.465856	89.235847	1.057242	0.006773	91
5827.550208	89.243660	1.056780	0.006761	93
5829.635072	89.222908	1.057522	0.006834	95
5831.719424	89.210785	1.056494	0.006805	97
5833.803776	89.223946	1.057280	0.006926	99
5835.887616	89.240982	1.057607	0.006638	101
5837.971968	89.194038	1.056594	0.007183	103
5840.056320	89.201759	1.056812	0.006842	105
5842.140672	89.167389	1.055554	0.006377	107
5844.225024	89.203644	1.055225	0.006926	109
5846.309376	89.189934	1.054310	0.006951	111
5848.393728	89.235329	1.054440	0.007099	113
5850.477568	89.188049	1.054446	0.006863	115
5852.561920	89.177528	1.054816	0.006996	117
5854.645760	89.193565	1.055455	0.006885	119
5856.730112	89.177055	1.055417	0.006809	121
5858.814464	89.223030	1.054729	0.006895	123
5860.898304	89.199348	1.056624	0.006599	125
5862.982656	89.212494	1.055676	0.006937	127
5865.066496	89.221779	1.055776	0.006802	129
5867.151360	89.221588	1.055512	0.006835	131
5869.235712	89.189651	1.055447	0.006835	133
5871.319552	89.218422	1.055537	0.006681	135
5873.403904	89.188599	1.055837	0.006824	137
5875.488256	89.170067	1.056082	0.006857	139
5877.572608	89.162125	1.056241	0.006753	141
5879.656960	89.184105	1.056518	0.006984	143
5881.741824	89.198021	1.056260	0.006819	145
5883.826176	89.174370	1.056821	0.006690	147
5885.911040	89.213593	1.055963	0.006869	149
5887.995392	89.140892	1.056289	0.006767	151
5890.079744	89.147224	1.057285	0.006798	153
5892.164608	89.168007	1.056277	0.006835	155
5894.248960	89.162079	1.057550	0.006791	157
5896.333312	89.185867	1.058284	0.006933	159
5898.418176	89.101921	1.058605	0.006783	161
5900.502016	89.133621	1.058658	0.006758	163
5902.586368	89.132652	1.057554	0.006818	165
5904.670720	89.123016	1.056952	0.006625	167
5906.755584	89.122093	1.056851	0.006811	169
5908.839936	89.134392	1.057066	0.006736	171
5910.924288	89.106483	1.056026	0.006771	173
5913.008640	89.088371	1.056136	0.006654	175
5915.092480	89.121239	1.054366	0.006996	177
5917.176832	89.097557	1.054879	0.007133	179
5919.260672	89.095894	1.056318	0.006876	181
5921.345024	89.114174	1.056027	0.006713	183
5923.429376	89.138496	1.056369	0.007032	185
5925.513728	89.131668	1.056843	0.006701	187
5927.598080	89.143486	1.056646	0.007139	189
5929.681408	89.094513	1.057486	0.006246	191
5931.765760	89.117775	1.056837	0.006828	193
5933.850624	89.119705	1.056625	0.006823	195
5935.934464	89.094154	1.057410	0.006684	197
5938.019328	89.127037	1.056748	0.006483	199
5940.103168	89.128204	1.055841	0.006701	201
5942.187008	89.111565	1.054146	0.006781	203
5944.271360	89.124397	1.054402	0.006848	205
5946.356224	89.121284	1.054814	0.006859	207
5948.440576	89.123192	1.054500	0.007920	209
5950.524928	89.068047	1.054441	0.007019	211
5952.609280	89.089874	1.054179	0.006962	213
5954.693632	89.080437	1.055530	0.006602	215
5956.778496	89.071793	1.055028	0.006839	217
5958.862848	89.081055	1.055894	0.006866	219
5960.947712	89.038872	1.056648	0.006917	221
5963.031552	89.041336	1.056964	0.006982	223
5965.116416	89.066216	1.055034	0.006857	225
5967.200768	89.068802	1.056001	0.006649	227
5969.285120	89.092957	1.055423	0.006656	229
5971.369472	89.050819	1.055165	0.006801	231
5973.453824	89.047333	1.055677	0.006761	233
5975.538688	89.066154	1.055691	0.006904	235
5977.622528	89.024765	1.056469	0.006770	237
5979.706880	89.021896	1.054613	0.007010	239
5981.791232	89.043495	1.055329	0.006823	241
5983.875584	89.032661	1.056008	0.006754	243
5985.959424	89.033958	1.055589	0.006716	245
5988.044288	89.014946	1.056378	0.006682	247
5990.128128	89.057823	1.055549	0.006636	249
5992.212480	89.027435	1.055642	0.006924	251
5994.295808	89.036285	1.053922	0.006909	253
5996.380160	89.039673	1.054801	0.006879	255
5998.464512	89.036522	1.054344	0.006953	1
6000.548352	89.042007	1.055729	0.007344	3
6002.633216	89.005783	1.056539	0.006651	5
6004.717568	89.019951	1.056080	0.006486	7
6006.801408	89.046616	1.054913	0.006560	9
6008.885760	89.051369	1.055081	0.006534	11
6010.969600	89.010574	1.055205	0.006331	13
6013.054464	89.012077	1.055898	0.006008	15
6015.139328	89.036400	1.053686	0.006559	17
6017.223168	89.032578	1.053941	0.006663	19
6019.308032	88.992744	1.055332	0.006464	21
6021.392384	89.008591	1.055246	0.006425	23
6023.476736	89.016396	1.053482	0.006613	25
6025.561088	89.017830	1.055500	0.006449	27
6027.645440	88.978523	1.054627	0.006443	29
6029.730304	89.006813	1.055467	0.006810	31
6031.814656	88.984497	1.056331	0.006733	33
6033.899008	88.986000	1.056157	0.006767	35
6035.983872	88.960564	1.056474	0.006694	37
6038.067712	88.999687	1.054074	0.006551	39
6040.152576	88.997177	1.054905	0.006852	41
6042.236416	88.966385	1.056522	0.006710	43
6044.321280	88.967484	1.054751	0.006849	45
6046.405632	88.972733	1.055538	0.006897	47
6048.489984	88.943298	1.056294	0.006830	49
6050.574336	88.938019	1.056908	0.006612	51
6052.658688	88.922623	1.055581	0.006812	53
6054.743040	88.940994	1.055760	0.006568	55
6056.827392	88.932037	1.056278	0.006704	57
6058.911232	88.946693	1.056687	0.006585	59
6060.995584	88.921944	1.057028	0.006535	61
6063.079936	88.929947	1.057638	0.006542	63
6065.163776	88.920280	1.057817	0.006419	65
6067.247616	88.938522	1.058524	0.006409	67
6069.331968	88.939110	1.058091	0.006482	69
6071.416320	88.926865	1.058441	0.006346	71
6073.500160	88.946877	1.055513	0.006510	73
6075.584512	88.972343	1.056701	0.006534	75
6077.669376	88.910522	1.056878	0.006516	77
6079.753216	88.921196	1.057593	0.006482	79
6081.837568	88.910957	1.057875	0.006406	81
6083.921920	88.926109	1.056876	0.006550	83
6086.006784	88.928246	1.057577	0.006570	85
6088.091136	88.944290	1.056694	0.006500	87
6090.175488	88.948067	1.056894	0.006509	89
6092.260352	88.923630	1.056233	0.006434	91
6094.344704	88.894188	1.054467	0.006571	93
6096.428544	88.949623	1.056016	0.006085	95
6098.512896	88.905396	1.056259	0.006345	97
6100.597760	88.897652	1.055655	0.006445	99
6102.681600	88.890999	1.055656	0.006058	101
6104.766976	88.847374	1.055777	0.005887	103
6106.851328	88.868240	1.056886	0.005893	105
6108.935168	88.879166	1.056788	0.006017	107
6111.020032	88.866638	1.056112	0.006022	109
6113.104384	88.861847	1.053821	0.006048	111
6115.188224	88.879028	1.055335	0.005855	113
6117.273088	88.877312	1.056650	0.005954	115
6119.356928	88.823021	1.056436	0.005940	117
6121.441792	88.971710	1.057471	0.006984	119
6123.526144	88.804169	1.054603	0.005360	121
6125.609984	88.830124	1.055206	0.006129	123
6127.693824	88.876266	1.055366	0.006419	125
6129.778176	88.792328	1.054978	0.006596	127
6131.862528	88.881989	1.055960	0.006787	129
6133.946368	88.869484	1.054367	0.006542	131
6136.030720	88.857697	1.054837	0.006669	133
6138.115072	88.852074	1.055151	0.006616	135
6140.198912	88.856483	1.054416	0.006569	137
6142.283776	88.809128	1.053753	0.006243	139
6144.367616	88.862564	1.055354	0.006484	141
6146.451968	88.881187	1.054963	0.006513	143
6148.536320	88.813744	1.054432	0.006818	145
6150.620672	88.831680	1.055956	0.006649	147
6152.705024	88.833733	1.055151	0.006857	149
6154.789376	88.845726	1.055436	0.006750	151
6156.874240	88.866745	1.055675	0.006605	153
6158.958080	88.807930	1.055777	0.006874	155
6161.043456	88.840302	1.055593	0.006908	157
6163.127296	88.803352	1.055055	0.006880	159
6165.212160	88.816048	1.055501	0.006773	161
6167.297024	88.809578	1.054973	0.006877	163
6169.380864	88.804276	1.055971	0.006908	165
6171.465216	88.776543	1.055694	0.006717	167
6173.550080	88.814751	1.056714	0.006836	169
6175.634432	88.760521	1.057514	0.007042	171
6177.718784	88.773170	1.056217	0.007028	173
6179.803136	88.774719	1.056621	0.007000	175
6181.888000	88.765366	1.057280	0.007109	177
6183.972352	88.771545	1.057269	0.007141	179
6186.056704	88.757721	1.057229	0.007029	181
6188.141056	88.748657	1.057373	0.007181	183
6190.224896	88.743034	1.056399	0.006965	185
6192.309760	88.760696	1.056731	0.006914	187
6194.393600	88.741310	1.057264	0.007029	189
6196.477952	88.742561	1.058391	0.006953	191
6198.562304	88.731216	1.057715	0.006946	193
6200.645632	88.777435	1.057293	0.006870	195
6202.729984	88.745972	1.058386	0.006972	197
6204.814336	88.780502	1.056868	0.007073	199
6206.898688	88.751595	1.057101	0.007064	201
6208.982528	88.742889	1.057765	0.006961	203
6211.066880	88.748238	1.057617	0.006948	205
6213.151232	88.767578	1.057415	0.007011	207
6215.235072	88.735146	1.057246	0.006852	209
6217.319424	88.730858	1.056150	0.006884	211
6219.403776	88.743935	1.056121	0.007055	213
6221.488640	88.727753	1.057443	0.006949	215
6223.572480	88.747429	1.055825	0.006921	217
6225.656832	88.730133	1.056415	0.006858	219
6227.741696	88.751183	1.056371	0.007133	221
6229.825536	88.746269	1.054797	0.008117	223
6231.910400	88.700134	1.056479	0.006970	225
6233.995264	88.692131	1.056263	0.006706	227
6236.079616	88.708900	1.055473	0.006813	229
6238.164480	88.692879	1.056917	0.006726	231
6240.248832	88.722893	1.057648	0.006616	233
6242.333184	88.710815	1.055107	0.006615	235
6244.417536	88.692261	1.056531	0.006711	237
6246.501888	88.669807	1.056499	0.007014	239
6248.586240	88.703827	1.055321	0.006872	241
6250.670592	88.595612	1.057375	0.006365	243
6252.754944	88.650703	1.057593	0.006967	245
6254.839296	88.681519	1.055385	0.006907	247
6256.922624	88.605400	1.056441	0.008006	249
6259.007488	88.678429	1.055368	0.006805	251
6261.091840	88.671349	1.055366	0.006794	253
6263.175680	88.680557	1.055110	0.006937	255
6265.260032	88.676659	1.056986	0.006761	1
6267.344384	88.638733	1.058368	0.006962	3
6269.428736	88.678085	1.055868	0.006982	5
6271.513088	88.675934	1.058817	0.006708	7
6273.596928	88.650864	1.056109	0.006835	9
6275.680768	88.666443	1.057028	0.006681	11
6277.765632	88.667809	1.057071	0.006671	13
6279.849984	88.687759	1.054759	0.006858	15
6281.934336	88.653938	1.057042	0.006641	17
6284.018176	88.652519	1.056822	0.006690	19
6286.102528	88.654144	1.054556	0.006659	21
6288.186880	88.657150	1.055774	0.006661	23
6290.270720	88.645157	1.054799	0.006707	25
6292.355584	88.644196	1.055737	0.006728	27
6294.439936	88.644714	1.055569	0.007087	29
6296.524288	88.664360	1.055271	0.006903	31
6298.608640	88.602272	1.055513	0.006818	33
6300.692992	88.639618	1.054809	0.006659	35
6302.776832	88.681877	1.054277	0.007020	37
6304.861696	88.620972	1.054238	0.006618	39
6306.946048	88.608360	1.055543	0.006608	41
6309.030400	88.606300	1.056508	0.006686	43
6311.114752	88.591591	1.056816	0.006671	45
6313.199616	88.598190	1.056121	0.006618	47
6315.283968	88.599808	1.056597	0.006601	49
6317.368320	88.601967	1.057933	0.006678	51
6319.452672	88.582710	1.058186	0.006501	53
6321.537024	88.605003	1.057756	0.006946	55
6323.620864	88.598343	1.056748	0.007208	57
6325.705728	88.565010	1.057075	0.006354	59
6327.789568	88.582397	1.057589	0.006600	61
6329.873920	88.583237	1.056734	0.006666	63
6331.958784	88.571335	1.056197	0.006592	65
6334.042624	88.596130	1.056508	0.006514	67
6336.126464	88.559509	1.057455	0.006749	69
6338.211328	88.554993	1.055739	0.006751	71
6340.295680	88.605186	1.056292	0.006691	73
6342.379520	88.571663	1.056302	0.006718	75
6344.463872	88.544098	1.057578	0.006728	77
6346.548224	88.568588	1.057795	0.006829	79
6348.632576	88.584320	1.056888	0.006940	81
6350.716416	88.517738	1.056260	0.007110	83
6352.800768	88.584595	1.055491	0.007283	85
6354.885632	88.621910	1.056455	0.007267	87
6356.969984	88.492638	1.057828	0.006884	89
6359.053824	88.558586	1.057958	0.006945	91
6361.138176	88.565147	1.055594	0.006909	93
6363.222528	88.563774	1.056342	0.006992	95
6365.306880	88.561089	1.056826	0.006928	97
6367.390720	88.555435	1.057150	0.006781	99
6369.475584	88.555809	1.058412	0.007002	101
6371.559936	88.566940	1.057286	0.007100	103
6373.644800	88.529037	1.058299	0.007159	105
6375.728640	88.552505	1.058677	0.007032	107
6377.812992	88.555367	1.056942	0.006841	109
6379.897344	88.552582	1.057321	0.007003	111
6381.982208	88.541031	1.057692	0.006784	113
6384.066048	88.519562	1.056828	0.007389	115
6386.149888	88.529877	1.056820	0.006945	117
6388.235264	88.533653	1.055840	0.006905	119
6390.319104	88.531586	1.056539	0.006872	121
6392.403456	88.532585	1.057555	0.006732	123
6394.488320	88.527512	1.057506	0.006937	125
6396.573184	88.521477	1.055638	0.007189	127
6398.657024	88.469940	1.057080	0.007167	129
6400.741376	88.472816	1.056751	0.006964	131
6402.825728	88.500214	1.057118	0.006934	133
6404.910080	88.496628	1.055719	0.006957	135
6406.993920	88.488319	1.056307	0.006834	137
6409.078272	88.492500	1.056429	0.006956	139
6411.162624	88.506676	1.057143	0.006903	141
6413.246976	88.521324	1.056431	0.006875	143
6415.331328	88.500923	1.056361	0.006851	145
6417.415168	88.492760	1.057440	0.006939	147
6419.499520	88.533676	1.056986	0.007103	149
6421.583360	88.483276	1.056411	0.006773	151
6423.668224	88.461571	1.057122	0.006605	153
6425.752064	88.505211	1.055608	0.007089	155
6427.835904	88.495491	1.054965	0.006800	157
6429.920768	88.489182	1.055311	0.006899	159
6432.004608	88.475571	1.055588	0.006940	161
6434.089472	88.480728	1.056198	0.006936	163
6436.173312	88.490036	1.056323	0.006889	165
6438.258176	88.470741	1.056692	0.006904	167
6440.342016	88.479233	1.056228	0.006786	169
6442.426880	88.468918	1.056087	0.006862	171
6444.511232	88.461983	1.055369	0.006811	173
6446.596096	88.455208	1.056070	0.006781	175
6448.680960	88.513023	1.056181	0.006608	177
6450.764800	88.471489	1.056408	0.006850	179
6452.849664	88.448692	1.056581	0.006862	181
6454.934016	88.457016	1.056989	0.007028	183
6457.018368	88.448830	1.056463	0.006994	185
6459.102720	88.441963	1.055793	0.006977	187
6461.187072	88.434723	1.056854	0.006882	189
6463.271424	88.437447	1.056479	0.006953	191
6465.355776	88.448433	1.057017	0.006915	193
6467.440128	88.427414	1.057926	0.006829	195
6469.524480	88.391983	1.057686	0.006954	197
6471.608832	88.418808	1.057331	0.006821	199
6473.692672	88.425919	1.056900	0.006929	201
6475.777024	88.411682	1.057023	0.006894	203
6477.861376	88.414780	1.057619	0.006868	205
6479.945728	88.418831	1.058846	0.006900	207
6482.030080	88.415237	1.058498	0.006968	209
6484.113920	88.427422	1.057699	0.006880	211
6486.198784	88.435005	1.058526	0.006447	213
6488.282624	88.453163	1.057711	0.006747	215
6490.366976	88.404541	1.056550	0.007056	217
6492.451328	88.419434	1.057502	0.006959	219
6494.535680	88.427765	1.056539	0.007053	221
6496.620032	88.391129	1.056015	0.006931	223
6498.704384	88.424637	1.056198	0.007074	225
6500.788736	88.409950	1.055858	0.006946	227
6502.872576	88.382622	1.055110	0.007141	229
6504.956928	88.405533	1.055123	0.006840	231
6507.041280	88.396378	1.054585	0.006994	233
6509.125632	88.399261	1.055247	0.006945	235
6511.209984	88.411720	1.055544	0.007006	237
6513.294848	88.389305	1.055561	0.007057	239
6515.379200	88.383636	1.056510	0.006988	241
6517.463040	88.394089	1.054610	0.006871	243
6519.547904	88.377792	1.055753	0.006831	245
6521.632256	88.380981	1.055941	0.006757	247
6523.716608	88.357262	1.056459	0.006762	249
6525.800960	88.385742	1.056294	0.006760	251
6527.885824	88.355080	1.056585	0.006736	253
6529.970176	88.352745	1.056849	0.006674	255
6532.054016	88.338303	1.057004	0.006741	1
6534.138880	88.346962	1.056662	0.006738	3
6536.223232	88.340485	1.056432	0.006806	5
6538.307584	88.346291	1.056176	0.006818	7
6540.390912	88.373047	1.054193	0.006831	9
6542.475776	88.341072	1.054617	0.006582	11
6544.559616	88.352600	1.055577	0.006765	13
6546.644480	88.354851	1.056784	0.006633	15
6548.728320	88.348953	1.057750	0.006651	17
6550.812672	88.331253	1.058028	0.006616	19
6552.896512	88.339081	1.057910	0.006792	21
6554.981376	88.345779	1.057785	0.006550	23
6557.065728	88.262856	1.059161	0.006520	25
6559.149056	88.370323	1.057658	0.006653	27
6561.233920	88.349144	1.057340	0.006790	29
6563.317760	88.352440	1.056942	0.006806	31
6565.402112	88.357468	1.055959	0.006700	33
6567.486464	88.354103	1.054782	0.006320	35
6569.570304	88.360809	1.054422	0.006540	37
6571.655680	88.361595	1.053968	0.006654	39
6573.740032	88.347786	1.053830	0.006752	41
6575.824384	88.308815	1.054866	0.006365	43
6577.908736	88.347069	1.054192	0.007270	45
6579.993088	88.301720	1.054120	0.006825	47
6582.077440	88.238800	1.054476	0.007551	49
6584.161792	88.321823	1.054929	0.006901	51
6586.246144	88.323830	1.054114	0.006751	53
6588.330496	88.340477	1.054182	0.006804	55
6590.415360	88.304436	1.055061	0.006759	57
6592.499712	88.315834	1.054855	0.006770	59
6594.584064	88.303337	1.055683	0.006731	61
6596.668416	88.293076	1.054860	0.006947	63
6598.753280	88.319931	1.055861	0.006960	65
6600.837120	88.307426	1.055570	0.006891	67
6602.921472	88.306358	1.055777	0.006767	69
6605.005824	88.305161	1.056210	0.006846	71
6607.090688	88.312355	1.055523	0.006969	73
6609.175040	88.292183	1.054880	0.006861	75
6611.258880	88.314102	1.055003	0.006947	77
6613.343744	88.278580	1.054826	0.006811	79
6615.428096	88.270241	1.055555	0.006950	81
6617.512448	88.274620	1.053245	0.006895	83
6619.596288	88.299500	1.054209	0.006709	85
6621.680640	88.279007	1.054914	0.006714	87
6623.764992	88.284576	1.054791	0.006665	89
6625.849344	88.279457	1.055583	0.006626	91
6627.933184	88.283417	1.055764	0.006648	93
6630.017536	88.279076	1.055655	0.006672	95
6632.102400	88.288597	1.055918	0.006756	97
6634.186240	88.281662	1.055152	0.006708	99
6636.270592	88.275299	1.055305	0.006559	101
6638.355456	88.275871	1.053898	0.006525	103
6640.439808	88.294601	1.053235	0.006581	105
6642.524160	88.291954	1.053080	0.006454	107
6644.608512	88.276367	1.052814	0.006559	109
6646.692352	88.258804	1.053353	0.006380	111
6648.777216	88.251930	1.054564	0.006505	113
6650.861568	88.261398	1.053056	0.006537	115
6652.945920	88.277946	1.053266	0.006536	117
6655.030784	88.258308	1.053175	0.006500	119
6657.115136	88.258865	1.053129	0.006348	121
6659.199488	88.236794	1.054094	0.006496	123
6661.283840	88.263992	1.053850	0.006560	125
6663.368192	88.244415	1.054684	0.006513	127
6665.452544	88.231583	1.054509	0.006455	129
6667.536896	88.249542	1.052974	0.006648	131
6669.621248	88.255539	1.052636	0.006435	133
6671.706112	88.227806	1.053418	0.006407	135
6673.790976	88.227074	1.053237	0.006621	137
6675.874816	88.265327	1.053463	0.006319	139
6677.959168	88.218575	1.053452	0.006347	141
6680.043520	88.209641	1.053456	0.006445	143
6682.127872	88.221603	1.054182	0.006469	145
6684.212224	88.215126	1.053112	0.006383	147
6686.296576	88.227165	1.052537	0.006410	149
6688.380928	88.213097	1.052221	0.006394	151
6690.465280	88.217117	1.053575	0.006293	153
6692.549632	88.197617	1.053788	0.006230	155
6694.633984	88.225723	1.053717	0.006308	157
6696.718336	88.193787	1.053579	0.006304	159
6698.802176	88.205223	1.053869	0.006325	161
6700.886528	88.197418	1.053909	0.006116	163
6702.970880	88.192856	1.054602	0.006165	165
6705.055232	88.188667	1.054978	0.006185	167
6707.139584	88.198799	1.055393	0.006228	169
6709.223936	88.197266	1.055059	0.006348	171
6711.308800	88.191612	1.055597	0.006248	173
6713.393152	88.175621	1.053172	0.006184	175
6715.477504	88.197655	1.054045	0.006270	177
6717.561856	88.167717	1.054798	0.006059	179
6719.646720	88.163742	1.055245	0.006112	181
6721.730560	88.181671	1.055696	0.006099	183
6723.815424	88.155746	1.055068	0.006248	185
6725.899776	88.164078	1.054344	0.006231	187
6727.984128	88.170273	1.054425	0.006212	189
6730.068992	88.160500	1.055330	0.006267	191
6732.153344	88.159065	1.056137	0.006237	193
6734.238208	88.145264	1.056809	0.006284	195
6736.322560	88.137482	1.056700	0.006362	197
6738.406400	88.119522	1.056562	0.006420	199
6740.491264	88.143860	1.054106	0.006430	201
6742.576128	88.137108	1.054658	0.006407	203
6744.660480	88.140869	1.055160	0.006514	205
6746.744832	88.140694	1.055860	0.006506	207
6748.829184	88.118935	1.055784	0.006485	209
6750.913536	88.117912	1.056325	0.006518	211
6752.997376	88.095444	1.056487	0.006583	213
6755.081728	88.093163	1.056208	0.006562	215
6757.166080	88.119568	1.055409	0.006574	217
6759.250432	88.122154	1.054988	0.006425	219
6761.334272	88.119881	1.055111	0.006462	221
6763.418624	88.128532	1.054514	0.006254	223
6765.503488	88.091446	1.054242	0.006364	225
6767.587840	88.126419	1.054517	0.006338	227
6769.672192	88.121773	1.054927	0.006268	229
6771.756032	88.111916	1.053650	0.006398	231
6773.840384	88.111115	1.054301	0.006264	233
6775.924736	88.099380	1.055377	0.006253	235
6778.009088	88.084511	1.055003	0.006284	237
6780.093440	88.112114	1.054142	0.006201	239
6782.177792	88.117210	1.054623	0.006188	241
6784.262144	88.102608	1.054375	0.006093	243
6786.346496	88.108009	1.054421	0.005986	245
6788.431360	88.088676	1.054515	0.006093	247
6790.515200	88.064766	1.053504	0.006244	249
6792.600064	88.111977	1.052754	0.006102	251
6794.683904	88.101532	1.053096	0.006096	253
6796.769280	88.083122	1.054244	0.006067	255
6798.853632	88.067093	1.053176	0.006162	1
6800.937984	88.092453	1.054178	0.006128	3
6803.022336	88.066666	1.055243	0.005974	5
6805.106688	88.009628	1.055677	0.007222	7
6807.191552	88.079353	1.055505	0.005971	9
6809.275904	88.045441	1.054313	0.006304	11
6811.360768	88.035210	1.056358	0.005817	13
6813.445120	88.043808	1.054335	0.005913	15
6815.529472	88.030556	1.055226	0.005746	17
6817.613824	88.000168	1.056142	0.005878	19
6819.698176	88.019783	1.054353	0.005767	21
6821.782016	88.059441	1.055582	0.006180	23
6823.866880	88.002945	1.056203	0.006169	25
6825.950720	88.029526	1.055881	0.006203	27
6828.035072	88.026352	1.055774	0.006196	29
6830.119936	88.023087	1.056223	0.006231	31
6832.204288	88.028587	1.055263	0.006385	33
6834.288640	88.028542	1.055551	0.006213	35
6836.372992	88.014290	1.055809	0.006106	37
6838.457344	88.016624	1.056020	0.006163	39
6840.540672	88.011223	1.055875	0.006089	41
6842.625536	87.998070	1.056376	0.005948	43
6844.709888	88.005074	1.054056	0.006072	45
6846.794240	88.005165	1.054687	0.005925	47
6848.878592	88.021828	1.055042	0.005961	49
6850.962432	88.030487	1.054890	0.005952	51
6853.047296	88.015671	1.055570	0.006029	53
6855.131136	87.988121	1.055625	0.005781	55
6857.216000	87.996460	1.056053	0.005936	57
6859.299840	87.997574	1.054345	0.005837	59
6861.384192	87.996170	1.054247	0.005791	61
6863.469056	87.990707	1.054149	0.005803	63
6865.553408	87.962837	1.053331	0.005992	65
6867.637760	87.994301	1.053051	0.005847	67
6869.722624	87.973755	1.054304	0.005901	69
6871.806976	87.971054	1.054390	0.005828	71
6873.891328	87.962578	1.055084	0.005860	73
6875.975680	87.937843	1.055380	0.005862	75
6878.060544	87.972725	1.054546	0.005799	77
6880.144896	87.964249	1.054678	0.005864	79
6882.228736	87.934578	1.055659	0.005323	81
6884.313600	87.951942	1.056227	0.005755	83
6886.397952	87.925377	1.055437	0.005847	85
6888.482816	87.927498	1.055850	0.005757	87
6890.567168	87.929939	1.054579	0.005846	89
6892.651520	87.904633	1.055546	0.005702	91
6894.735360	87.912308	1.055484	0.005897	93
6896.819712	87.923874	1.055975	0.005711	95
6898.904576	87.934082	1.056306	0.005860	97
6900.988416	87.915733	1.056874	0.005705	99
6903.072768	87.885338	1.055885	0.005857	101
6905.157120	87.925255	1.056940	0.005883	103
6907.241472	87.915115	1.057862	0.005866	105
6909.325312	87.904633	1.057168	0.005859	107
6911.410176	87.888924	1.057908	0.005689	109
6913.494016	87.895470	1.055002	0.005729	111
6915.578368	87.903633	1.056551	0.005664	113
6917.662720	87.889526	1.056554	0.005530	115
6919.747072	87.901161	1.054279	0.005697	117
6921.830912	87.899139	1.055113	0.005668	119
6923.915776	87.890259	1.055891	0.005635	121
6926.000128	87.884918	1.056092	0.005660	123
6928.084480	87.875389	1.055993	0.005699	125
6930.168832	87.881889	1.054694	0.005722	127
6932.253696	87.862755	1.055453	0.005541	129
6934.338048	87.858452	1.055780	0.005526	131
6936.422400	87.857231	1.056237	0.005513	133
6938.506752	87.857353	1.056629	0.005498	135
6940.591616	87.834915	1.056556	0.005519	137
6942.675968	87.843117	1.055963	0.005460	139
6944.759808	87.847649	1.053717	0.005533	141
6946.844672	87.840630	1.054017	0.005328	143
6948.929536	87.825836	1.053998	0.005213	145
6951.013376	87.792511	1.055096	0.005203	147
6953.098240	87.811333	1.054176	0.005284	149
6955.182592	87.815727	1.053838	0.005167	151
6957.266432	87.821716	1.053969	0.005385	153
6959.350784	87.807068	1.055275	0.005686	155
6961.435136	87.824776	1.054368	0.005970	157
6963.519488	87.816681	1.055480	0.005948	159
6965.603840	87.808922	1.056032	0.005909	161
6967.688192	87.808929	1.056269	0.005885	163
6969.772032	87.794502	1.056293	0.005875	165
6971.856384	87.792778	1.056026	0.005913	167
6973.940736	87.784912	1.053912	0.005978	169
6976.025088	87.808678	1.054156	0.005990	171
6978.109440	87.840866	1.055174	0.005855	173
6980.193792	87.801796	1.055524	0.005709	175
6982.278144	87.757454	1.055903	0.005852	177
6984.362496	87.848480	1.055315	0.006067	179
6986.446848	87.790871	1.055070	0.005682	181
6988.531200	87.777840	1.054873	0.005751	183
6990.615552	87.753250	1.055498	0.005771	185
6992.699904	87.778839	1.055064	0.005885	187
6994.784256	87.757065	1.056382	0.006100	189
6996.868608	87.778519	1.057017	0.006184	191
6998.952960	87.788544	1.055762	0.006336	193
7001.037312	87.781403	1.055597	0.006221	195
7003.122176	87.748848	1.056648	0.006186	197
7005.206528	87.769119	1.057019	0.006285	199
7007.291392	87.782677	1.054486	0.006286	201
7009.375232	87.769035	1.055686	0.006170	203
7011.460096	87.754059	1.056897	0.005999	205
7013.544448	87.754669	1.055858	0.006058	207
7015.628800	87.780380	1.056023	0.006089	209
7017.713664	87.768631	1.056451	0.006062	211
7019.797504	87.732483	1.057070	0.006004	213
7021.882368	87.743431	1.054969	0.006240	215
7023.966720	87.744240	1.057015	0.006245	217
7026.051072	87.767952	1.056910	0.006301	219
7028.134912	87.747002	1.056495	0.006289	221
7030.219776	87.738487	1.055576	0.006236	223
7032.304128	87.766617	1.055968	0.006144	225
7034.388480	87.743927	1.055294	0.006061	227
7036.472832	87.738670	1.055305	0.006027	229
7038.557184	87.729416	1.055963	0.006041	231
7040.641536	87.733017	1.054506	0.006082	233
7042.725376	87.740356	1.054731	0.006141	235
7044.809728	87.732475	1.056607	0.006041	237
7046.894080	87.716080	1.056659	0.005855	239
7048.978432	87.712662	1.054851	0.005977	241
7051.062784	87.734886	1.055400	0.005863	243
7053.146624	87.718399	1.055547	0.006028	245
7055.231488	87.722176	1.055711	0.005632	247
7057.315840	87.723351	1.053207	0.006000	249
7059.400192	87.749756	1.054538	0.006095	251
7061.484544	87.734932	1.054649	0.006176	253
7063.568896	87.698982	1.054005	0.006043	255
7065.653248	87.701202	1.052562	0.006035	1
7067.737600	87.712708	1.054343	0.005880	3
7069.821952	87.706947	1.053747	0.005928	5
7071.906816	87.715874	1.054456	0.005882	7
7073.991168	87.689476	1.054846	0.005901	9
7076.075520	87.682228	1.055202	0.005983	11
7078.159872	87.690552	1.053834	0.005981	13
7080.243712	87.691956	1.054969	0.006160	15
7082.328064	87.672806	1.054954	0.006141	17
7084.412928	87.657631	1.055516	0.005993	19
7086.497280	87.655212	1.055559	0.006011	21
7088.581632	87.659462	1.054888	0.005797	23
7090.666496	87.653412	1.055287	0.005734	25
7092.750848	87.645195	1.055701	0.005674	27
7094.835200	87.641319	1.055372	0.005838	29
7096.919552	87.618042	1.056298	0.005664	31
7099.004416	87.605431	1.055811	0.005636	33
7101.088256	87.630905	1.054461	0.005696	35
7103.172608	87.619972	1.055136	0.005498	37
7105.256448	87.592850	1.055696	0.005393	39
7107.341312	87.599632	1.054022	0.005665	41
7109.425152	87.596893	1.055008	0.005530	43
7111.510016	87.595024	1.055521	0.005352	45
7113.593856	87.564789	1.055999	0.005356	47
7115.678208	87.586006	1.055232	0.005466	49
7117.762048	87.573189	1.055578	0.005435	51
7119.846400	87.577751	1.056121	0.005487	53
7121.930752	87.551163	1.053731	0.005323	55
7124.015104	87.573112	1.055090	0.005385	57
7126.099456	87.571220	1.056173	0.005576	59
7128.183808	87.540672	1.056208	0.005864	61
7130.267648	87.588112	1.054013	0.006307	63
7132.352512	87.562843	1.055126	0.006400	65
7134.436864	87.574043	1.056140	0.006557	67
7136.521216	87.562630	1.055148	0.006757	69
7138.605568	87.566696	1.055169	0.006684	71
7140.689920	87.574364	1.055461	0.006804	73
7142.774272	87.574554	1.056012	0.007093	75
7144.858624	87.548355	1.054780	0.007185	77
7146.942976	87.573402	1.055487	0.007317	79
7149.027328	87.574486	1.055590	0.007472	81
7151.112192	87.576042	1.055756	0.007545	83
7153.196544	87.542587	1.056226	0.007635	85
7155.281408	87.563164	1.054775	0.007566	87
7157.365248	87.549065	1.056152	0.007312	89
7159.450112	87.546799	1.056170	0.007146	91
7161.533952	87.544693	1.055796	0.007094	93
7163.618816	87.529785	1.054298	0.007094	95
7165.703168	87.558609	1.054840	0.006854	97
7167.787520	87.523064	1.055208	0.006799	99
7169.871872	87.556778	1.056500	0.006766	101
7171.955712	87.499115	1.056938	0.006619	103
7174.040576	87.520142	1.055914	0.006650	105
7176.124416	87.526535	1.055937	0.006323	107
7178.208768	87.537834	1.055492	0.006303	109
7180.293120	87.513885	1.055590	0.006304	111
7182.377472	87.514381	1.056129	0.006279	113
7184.461824	87.494385	1.056312	0.006309	115
7186.546176	87.521469	1.056676	0.006395	117
7188.630016	87.521515	1.056261	0.006317	119
7190.714368	87.500847	1.055842	0.006380	121
7192.799232	87.519501	1.056532	0.006385	123
7194.883584	87.528328	1.055765	0.006519	125
7196.967424	87.487907	1.053968	0.006314	127
7199.051776	87.516342	1.055278	0.006335	129
7201.136128	87.505440	1.054952	0.006307	131
7203.220480	87.509125	1.054520	0.006354	133
7205.304832	87.495552	1.054160	0.006283	135
7207.389184	87.511681	1.053716	0.006222	137
7209.474048	87.477898	1.054720	0.005875	139
7211.557888	87.478119	1.054771	0.005730	141
7213.642752	87.471100	1.054339	0.005755	143
7215.726592	87.426521	1.054203	0.005556	145
7217.810944	87.479721	1.053643	0.005921	147
7219.895296	87.431267	1.053727	0.005846	149
7221.979648	87.505775	1.053039	0.006358	151
7224.064000	87.467644	1.053250	0.006172	153
7226.148352	87.474663	1.054742	0.006240	155
7228.232704	87.472328	1.054893	0.006169	157
7230.317568	87.455421	1.054772	0.006268	159
7232.401920	87.474686	1.056227	0.005975	161
7234.486272	87.461929	1.055562	0.005982	163
7236.570624	87.414917	1.055776	0.006207	165
7238.654976	87.414970	1.056515	0.006069	167
7240.739328	87.449448	1.054938	0.006195	169
7242.823168	87.454422	1.056445	0.006132	171
7244.908544	87.439415	1.057174	0.006184	173
7246.992384	87.407913	1.057220	0.006154	175
7249.076736	87.447205	1.056736	0.006296	177
7251.161088	87.402374	1.056545	0.006448	179
7253.245440	87.427162	1.056206	0.006269	181
7255.329792	87.419609	1.056880	0.006341	183
7257.414656	87.403313	1.056672	0.006273	185
7259.499008	87.475464	1.056736	0.004734	187
7261.582336	87.419807	1.057366	0.006419	189
7263.667200	87.417130	1.056321	0.006513	191
7265.751040	87.448410	1.055579	0.006488	193
7267.835904	87.473396	1.054641	0.006634	195
7269.920256	87.403740	1.054574	0.006231	197
7272.004096	87.427078	1.054263	0.006249	199
7274.088448	87.418137	1.054295	0.006152	201
7276.173312	87.407875	1.053372	0.006059	203
7278.257664	87.440102	1.054004	0.006094	205
7280.341504	87.414543	1.054345	0.006235	207
7282.425856	87.407906	1.054756	0.006338	209
7284.510208	87.418594	1.054396	0.006249	211
7286.594560	87.400841	1.054819	0.006113	213
7288.679424	87.417236	1.055741	0.006197	215
7290.763776	87.401886	1.053764	0.006649	217
7292.847616	87.444061	1.054223	0.006908	219
7294.932480	87.431435	1.053103	0.007128	221
7297.016320	87.443970	1.053447	0.007162	223
7299.100672	87.420830	1.054070	0.007342	225
7301.185536	87.434631	1.054325	0.007383	227
7303.269888	87.421005	1.055884	0.007469	229
7305.354752	87.414726	1.055886	0.007399	231
7307.438592	87.414848	1.056047	0.007344	233
7309.523456	87.430351	1.055972	0.007417	235
7311.607296	87.403084	1.055407	0.007201	237
7313.691648	87.426643	1.053296	0.007215	239
7315.776512	87.437592	1.054765	0.007052	241
7317.860352	87.421379	1.054303	0.007022	243
7319.944704	87.419304	1.054844	0.007032	245
7322.029568	87.416069	1.055944	0.006909	247
7324.113920	87.407562	1.056276	0.007070	249
7326.197760	87.420479	1.056133	0.006871	251
7328.282624	87.411530	1.055074	0.006861	253
7330.366976	87.401688	1.054611	0.006773	255
7332.451328	87.418221	1.055058	0.006664	1
7334.535680	87.442352	1.055809	0.006684	3
7336.620544	87.410988	1.055772	0.006874	5
7338.704384	87.407600	1.053219	0.006632	7
7340.788736	87.418945	1.055185	0.006608	9
7342.873088	87.395676	1.055767	0.006464	11
7344.957440	87.378181	1.055711	0.006499	13
7347.041792	87.386742	1.055638	0.006616	15
7349.126144	87.369942	1.055352	0.006732	17
7351.210496	87.370583	1.055076	0.006941	19
7353.294336	87.397385	1.054412	0.007100	21
7355.379200	87.392143	1.055222	0.007224	23
7357.463552	87.386925	1.054827	0.007480	25
7359.547904	87.379623	1.055334	0.007466	27
7361.632256	87.383316	1.055340	0.007635	29
7363.716608	87.397560	1.054486	0.007683	31
7365.800960	87.367897	1.055433	0.007701	33
7367.885824	87.386856	1.055997	0.007860	35
7369.970176	87.354897	1.056242	0.007895	37
7372.054016	87.381927	1.056081	0.007975	39
7374.138368	87.362633	1.054246	0.007794	41
7376.222720	87.391731	1.054218	0.007637	43
7378.307072	87.383011	1.053579	0.007542	45
7380.391424	87.368843	1.054606	0.007418	47
7382.475776	87.395706	1.054233	0.007263	49
7384.560128	87.335487	1.054143	0.007152	51
7386.644480	87.344513	1.054081	0.007041	53
7388.728832	87.350876	1.055593	0.006811	55
7390.813184	87.334091	1.056036	0.006859	57
7392.897536	87.338531	1.056077	0.006799	59
7394.981888	87.323250	1.055772	0.006706	61
7397.066240	87.323990	1.055953	0.006598	63
7399.150592	87.333405	1.056511	0.006348	65
7401.234944	87.315346	1.055926	0.006291	67
7403.319296	87.306976	1.056410	0.006058	69
7405.403648	87.336075	1.055825	0.005941	71
7407.488000	87.299477	1.056536	0.005976	73
7409.572352	87.310394	1.056316	0.005994	75
7411.656704	87.290642	1.057096	0.006000	77
7413.741056	87.292419	1.056815	0.006033	79
7415.825408	87.274055	1.056998	0.006062	81
7417.909760	87.262375	1.056734	0.005980	83
7419.994112	87.304710	1.056020	0.005855	85
7422.077952	87.242775	1.056231	0.006100	87
7424.162304	87.269127	1.056090	0.005737	89
7426.246656	87.241158	1.055934	0.005810	91
7428.331008	87.243484	1.056489	0.005815	93
7430.415360	87.249344	1.056883	0.006120	95
7432.500224	87.275673	1.055852	0.006509	97
7434.584064	87.216370	1.056321	0.006923	99
7436.668416	87.247879	1.056291	0.006860	101
7438.752768	87.277893	1.056136	0.006874	103
7440.837120	87.251091	1.055809	0.006766	105
7442.921472	87.237633	1.055915	0.006651	107
7445.005824	87.237907	1.057051	0.006385	109
7447.090176	87.240349	1.057392	0.006411	111
7449.174528	87.225906	1.057008	0.006258	113
7451.258880	87.205902	1.055029	0.006216	115
7453.342720	87.202835	1.055868	0.005937	117
7455.427584	87.217369	1.055646	0.005965	119
7457.511936	87.214111	1.055135	0.006035	121
7459.595776	87.205864	1.054742	0.006056	123
7461.680128	87.219406	1.055830	0.006330	125
7463.764992	87.228233	1.055728	0.006293	127
7465.849344	87.207695	1.056160	0.006689	129
7467.933184	87.226852	1.056788	0.006830	131
7470.017536	87.207733	1.056524	0.007102	133
7472.101888	87.199959	1.056170	0.007187	135
7474.186240	87.199310	1.053942	0.007138	137
7476.270592	87.198334	1.055223	0.006986	139
7478.354944	87.215210	1.054978	0.006975	141
7480.439296	87.241257	1.055450	0.006667	143
7482.523648	87.188049	1.055986	0.006959	145
7484.608512	87.199783	1.055560	0.006900	147
7486.692352	87.176956	1.056611	0.007069	149
7488.776704	87.202469	1.054915	0.007201	151
7490.860544	87.215004	1.055098	0.007415	153
7492.945408	87.221664	1.054641	0.007476	155
7495.029760	87.205574	1.054580	0.007583	157
7497.114112	87.212692	1.054539	0.007506	159
7499.198464	87.200439	1.055270	0.007656	161
7501.282304	87.195343	1.055630	0.007650	163
7503.367168	87.203804	1.055602	0.007738	165
7505.451520	87.198875	1.054452	0.007558	167
7507.535360	87.243530	1.054065	0.007537	169
7509.619712	87.189484	1.054976	0.007304	171
7511.704576	87.185387	1.055693	0.007120	173
7513.788416	87.189201	1.055418	0.007181	175
7515.872768	87.191132	1.054595	0.007054	177
7517.956608	87.196617	1.055266	0.007175	179
7520.040960	87.178284	1.055537	0.007223	181
7522.125824	87.190788	1.056275	0.007304	183
7524.210176	87.189056	1.054356	0.007505	185
7526.294528	87.264725	1.055308	0.007214	187
7528.379392	87.204491	1.055045	0.007719	189
7530.463232	87.199783	1.055542	0.007939	191
7532.547584	87.182526	1.054714	0.007972	193
7534.631936	87.216827	1.055524	0.008065	195
7536.716288	87.211693	1.055435	0.008255	197
7538.800640	87.191811	1.055274	0.008172	199
7540.885504	87.190720	1.054099	0.008455	201
7542.969856	87.232155	1.054716	0.008275	203
7545.054208	87.229759	1.054901	0.008434	205
7547.138560	87.198601	1.055885	0.008294	207
7549.222912	87.226349	1.055500	0.008450	209
7551.307264	87.220161	1.054720	0.008582	211
7553.391616	87.226471	1.054258	0.008554	213
7555.475968	87.213951	1.054157	0.008558	215
7557.560320	87.238068	1.054066	0.008575	217
7559.644672	87.238876	1.054832	0.008514	219
7561.729024	87.218216	1.055630	0.008498	221
7563.813376	87.253380	1.055310	0.008881	223
7565.897728	87.241791	1.054703	0.008772	225
7567.982592	87.259888	1.054516	0.008893	227
7570.066432	87.229347	1.054355	0.009169	229
7572.151296	87.290138	1.053980	0.008909	231
7574.235648	87.250183	1.054206	0.009200	233
7576.319488	87.259697	1.054694	0.009194	235
7578.404352	87.277306	1.054608	0.009208	237
7580.488192	87.268051	1.053972	0.008991	239
7582.572544	87.253365	1.055628	0.008863	241
7584.656896	87.236176	1.054898	0.008762	243
7586.740736	87.266151	1.054623	0.008624	245
7588.825600	87.263481	1.054461	0.008541	247
7590.909440	87.237579	1.054653	0.008339	249
7592.993792	87.235725	1.055044	0.008304	251
7595.078144	87.236809	1.055389	0.008260	253
7597.162496	87.234398	1.053435	0.008182	255
7599.246848	87.253967	1.053929	0.008327	1
7601.331200	87.274857	1.054132	0.008392	3
7603.415552	87.264992	1.054701	0.008484	5
7605.499904	87.269882	1.054218	0.008625	7
7607.584256	87.262054	1.054824	0.008814	9
7609.668608	87.278969	1.054593	0.008981	11
7611.752960	87.288101	1.055273	0.008976	13
7613.837312	87.271080	1.054906	0.009032	15
7615.922176	87.307236	1.055679	0.009278	17
7618.006528	87.276108	1.055100	0.009275	19
7620.090880	87.295883	1.055514	0.009158	21
7622.174720	87.296654	1.055135	0.009251	23
7624.260096	87.304153	1.055662	0.009257	25
7626.343936	87.285927	1.056570	0.009507	27
7628.428288	87.279716	1.056849	0.009584	29
7630.512640	87.299362	1.056327	0.009425	31
7632.597504	87.276031	1.056103	0.009403	33
7634.681344	87.278580	1.055402	0.008993	35
7636.765696	87.282852	1.055424	0.008872	37
7638.850048	87.290924	1.056224	0.008625	39
7640.934400	87.271515	1.056285	0.008400	41
7643.018752	87.279579	1.055371	0.008312	43
7645.103104	87.299477	1.055423	0.008003	45
7647.187456	87.278442	1.055774	0.007915	47
7649.271808	87.276039	1.056598	0.007601	49
7651.356160	87.268257	1.056288	0.007396	51
7653.440000	87.257690	1.056031	0.007146	53
7655.524864	87.271217	1.054310	0.007163	55
7657.608704	87.259476	1.054857	0.007039	57
7659.693056	87.252365	1.056216	0.006858	59
7661.777920	87.265144	1.054923	0.006913	61
7663.861760	87.256981	1.054780	0.006802	63
7665.946112	87.269508	1.055491	0.006821	65
7668.030464	87.232330	1.055943	0.006684	67
7670.114816	87.224411	1.054414	0.006682	69
7672.199168	87.254028	1.054981	0.006432	71
7674.283520	87.252693	1.056333	0.006468	73
7676.367872	87.201340	1.056634	0.006023	75
7678.452224	87.243271	1.055951	0.006270	77
7680.536576	87.184074	1.057281	0.006122	79
7682.621440	87.193100	1.057361	0.006098	81
7684.705792	87.220421	1.057508	0.006189	83
7686.790144	87.179070	1.057105	0.006170	85
7688.873984	87.182472	1.056847	0.006136	87
7690.958848	87.194740	1.056874	0.006018	89
7693.043200	87.180679	1.056826	0.006107	91
7695.127552	87.164444	1.057263	0.005970	93
7697.212416	87.175034	1.055806	0.005856	95
7699.296768	87.156555	1.055402	0.005700	97
7701.381120	87.149277	1.056219	0.005703	99
7703.465472	87.161453	1.055559	0.005853	101
7705.549312	87.170090	1.055902	0.005529	103
7707.633664	87.172195	1.056155	0.005429	105
7709.718016	87.163597	1.056467	0.005711	107
7711.802368	87.163536	1.055230	0.005965	109
7713.886208	87.162376	1.055758	0.005972	111
7715.970560	87.180046	1.056222	0.006289	113
7718.054912	87.150887	1.056119	0.006467	115
7720.139776	87.155228	1.056562	0.006921	117
7722.224128	87.158638	1.054369	0.007203	119
7724.307968	87.152802	1.056086	0.007457	121
7726.391808	87.169373	1.057220	0.007417	123
7728.476672	87.188271	1.055402	0.007632	125
7730.561024	87.185593	1.055803	0.007659	127
7732.645376	87.197266	1.055949	0.007992	129
7734.729728	87.223938	1.055228	0.007973	131
7736.813568	87.160828	1.055575	0.008033	133
7738.897920	87.171219	1.055202	0.007972	135
7740.982272	87.177055	1.055923	0.007671	137
7743.067136	87.184250	1.056160	0.007504	139
7745.151488	87.203972	1.056235	0.007606	141
7747.235328	87.165962	1.055681	0.007631	143
7749.319680	87.178360	1.054253	0.007559	145
7751.404032	87.168884	1.054944	0.007477	147
7753.488384	87.172447	1.056558	0.007468	149
7755.572736	87.157555	1.054652	0.007643	151
7757.657600	87.168320	1.055422	0.007662	153
7759.741952	87.170540	1.056205	0.007576	155
7761.825792	87.136497	1.056232	0.007477	157
7763.910144	87.153946	1.054913	0.007456	159
7765.994496	87.152725	1.055588	0.007200	161
7768.079360	87.159012	1.056043	0.007225	163
7770.163712	87.148537	1.054093	0.007128	165
7772.248064	87.153114	1.054992	0.006979	167
7774.332416	87.151588	1.054616	0.007035	169
7776.416768	87.142250	1.055113	0.006747	171
7778.501120	87.139130	1.054760	0.006945	173
7780.585472	87.138580	1.055115	0.006778	175
7782.669824	87.132446	1.056341	0.006661	177
7784.754176	87.121407	1.056851	0.006852	179
7786.838528	87.134544	1.054883	0.006763	181
7788.922368	87.112633	1.057157	0.006540	183
7791.007232	87.127968	1.057441	0.006650	185
7793.091584	87.129257	1.055873	0.006861	187
7795.175936	87.153259	1.056444	0.006889	189
7797.260288	87.134300	1.056373	0.007092	191
7799.344640	87.149551	1.054603	0.007342	193
7801.428992	87.145508	1.056445	0.007560	195
7803.513344	87.114418	1.057101	0.007463	197
7805.597184	87.135048	1.055636	0.007619	199
7807.681536	87.133644	1.056124	0.007377	201
7809.765888	87.139984	1.056372	0.007371	203
7811.849728	87.158104	1.057984	0.007382	205
7813.934592	87.129639	1.056147	0.007431	207
7816.018944	87.148056	1.056852	0.007215	209
7818.103296	87.138847	1.057775	0.007129	211
7820.187648	87.125977	1.056650	0.007075	213
7822.271488	87.142998	1.056104	0.006952	215
7824.356352	87.115776	1.057128	0.006758	217
7826.441216	87.120750	1.057281	0.006742	219
7828.525056	87.111832	1.056169	0.006649	221
7830.609408	87.123665	1.056094	0.006486	223
7832.693760	87.094528	1.056677	0.006508	225
7834.778112	87.138390	1.055846	0.006581	227
7836.861952	87.123512	1.055541	0.006586	229
7838.946816	87.098892	1.055594	0.006469	231
7841.031168	87.108353	1.053724	0.006323	233
7843.115520	87.102760	1.054414	0.006227	235
7845.199872	87.110115	1.055952	0.006311	237
7847.284224	87.066650	1.053924	0.006477	239
7849.368064	87.081566	1.054662	0.006264	241
7851.452928	87.100021	1.055428	0.006565	243
7853.536768	87.090782	1.056065	0.006741	245
7855.621120	87.102730	1.053733	0.006910	247
7857.705472	87.115005	1.055122	0.006835	249
7859.789824	87.082535	1.055113	0.006699	251
7861.874176	87.098648	1.054955	0.006846	253
7863.958528	87.109497	1.054381	0.006757	255
7866.042880	87.087090	1.054469	0.006699	1
7868.127232	87.081779	1.054461	0.006668	3
7870.211584	87.091820	1.053951	0.006490	5
7872.295936	87.082817	1.054757	0.006409	7
7874.380800	87.081200	1.054799	0.006299	9
7876.464640	87.086960	1.055122	0.006479	11
7878.549504	87.066589	1.055133	0.006677	13
7880.633856	87.099060	1.052913	0.006828	15
7882.718208	87.090637	1.054968	0.006993	17
7884.802560	87.067284	1.056971	0.007129	19
7886.886912	87.077248	1.056225	0.007465	21
7888.971776	87.100143	1.056071	0.007639	23
7891.056128	87.086494	1.056559	0.007633	25
7893.140480	87.094139	1.055318	0.007874	27
7895.224832	87.106155	1.056091	0.007796	29
7897.309184	87.095390	1.055816	0.007880	31
7899.393536	87.081184	1.055311	0.007928	33
7901.477888	87.105263	1.054972	0.008067	35
7903.562240	87.105553	1.055094	0.008197	37
7905.646592	87.098587	1.055479	0.008303	39
7907.730944	87.091019	1.056044	0.008211	41
7909.815296	87.106567	1.054118	0.008491	43
7911.899136	87.103081	1.055249	0.008546	45
7913.983488	87.113121	1.054363	0.008527	47
7916.067840	87.111229	1.053823	0.008531	49
7918.152192	87.102982	1.054487	0.008637	51
7920.236544	87.114136	1.051487	0.008966	53
7922.320896	87.110001	1.053544	0.008790	55
7924.405248	87.122589	1.053259	0.008965	57
7926.489600	87.123497	1.051793	0.009117	59
7928.573952	87.145950	1.051845	0.008880	61
7930.658304	87.095657	1.053457	0.008641	63
7932.742656	87.109741	1.052034	0.008596	65
7934.827008	87.117455	1.052459	0.008192	67
7936.910848	87.112526	1.052343	0.009530	69
7938.996224	87.094963	1.053002	0.007942	71
7941.080064	87.081459	1.050819	0.007934	73
7943.164416	87.119980	1.054140	0.007619	75
7945.248768	87.081543	1.054757	0.006564	77
7947.333120	87.107918	1.053653	0.007784	79
7949.417984	87.092720	1.054697	0.007835	81
7951.502848	87.083824	1.053838	0.008420	83
7953.587200	87.078712	1.054879	0.008132	85
7955.672064	87.071037	1.055363	0.008241	87
7957.756416	87.059998	1.054273	0.008085	89
7959.840256	87.089981	1.055306	0.007864	91
7961.925120	87.079811	1.054463	0.007944	93
7964.008960	87.079018	1.054589	0.007886	95
7966.093824	87.082619	1.055282	0.008049	97
7968.177664	87.066772	1.056041	0.008304	99
7970.262016	87.054062	1.054376	0.008665	101
7972.346880	87.103470	1.055539	0.008830	103
7974.430720	87.138374	1.056211	0.008832	105
7976.515584	87.105843	1.053656	0.009015	107
7978.599424	87.114143	1.055288	0.008794	109
7980.683776	87.101471	1.056039	0.008731	111
7982.768128	87.092896	1.056249	0.008681	113
7984.851968	87.126305	1.054292	0.008727	115
7986.935808	87.146088	1.054373	0.008563	117
7989.020160	87.138474	1.055334	0.008786	119
7991.104512	87.116180	1.056813	0.008884	121
7993.188864	87.131340	1.054013	0.009091	123
7995.273216	87.132362	1.056098	0.009000	125
7997.357568	87.119591	1.055771	0.009084	127
7999.441920	87.137444	1.056495	0.009307	129
8001.526272	87.147713	1.055657	0.009482	131
8003.610624	87.164467	1.055565	0.009519	133
8005.694464	87.169846	1.054546	0.009597	135
8007.779328	87.143761	1.055638	0.009791	137
8009.863680	87.158882	1.055912	0.009968	139
8011.947520	87.149651	1.054841	0.009867	141
8014.031872	87.128677	1.055230	0.009500	143
8016.116224	87.181305	1.056553	0.009511	145
8018.200576	87.229027	1.055211	0.009489	147
8020.284928	87.153549	1.054989	0.009627	149
8022.369280	87.185204	1.054904	0.009335	151
8024.453632	87.164482	1.054689	0.009055	153
8026.538496	87.165932	1.055475	0.008986	155
8028.622336	87.187698	1.055138	0.009182	157
8030.707200	87.169235	1.054216	0.009106	159
8032.791552	87.191536	1.055682	0.009147	161
8034.875392	87.142235	1.055283	0.008894	163
8036.960256	87.120041	1.053265	0.008810	165
8039.044096	87.196655	1.054208	0.008550	167
8041.128448	87.158798	1.054782	0.008485	169
8043.212800	87.159302	1.055613	0.008526	171
8045.296640	87.124527	1.054528	0.008736	173
8047.381504	87.180473	1.055585	0.008783	175
8049.465344	87.189270	1.055377	0.008822	177
8051.550208	87.193817	1.056066	0.008968	179
8053.634048	87.189621	1.055665	0.009142	181
8055.717888	87.208534	1.056113	0.009191	183
8057.802752	87.194588	1.056303	0.009197	185
8059.886080	87.208450	1.053590	0.009446	187
8061.970944	87.188744	1.054366	0.009318	189
8064.055296	87.242233	1.055063	0.009114	191
8066.139136	87.217857	1.056114	0.009399	193
8068.223488	87.225899	1.054398	0.009441	195
8070.307840	87.256195	1.055636	0.009479	197
8072.392192	87.238541	1.056216	0.009489	199
8074.476544	87.234253	1.054820	0.009415	201
8076.560896	87.252213	1.055450	0.009491	203
8078.645248	87.268478	1.054644	0.009637	205
8080.729088	87.263405	1.054917	0.009475	207
8082.813440	87.249382	1.052968	0.009446	209
8084.897792	87.253700	1.052387	0.009140	211
8086.982144	87.248566	1.053707	0.008806	213
8089.067008	87.229836	1.054686	0.008676	215
8091.151360	87.233589	1.054440	0.008468	217
8093.235712	87.216942	1.054654	0.008116	219
8095.320064	87.178642	1.055605	0.007862	221
8097.403904	87.209633	1.055618	0.007925	223
8099.488256	87.254807	1.053872	0.008411	225
8101.572608	87.211914	1.055879	0.008177	227
8103.657472	87.216377	1.056436	0.008209	229
8105.741824	87.210976	1.056643	0.008284	231
8107.826176	87.204765	1.055047	0.008310	233
8109.910016	87.220329	1.054830	0.007947	235
8111.994880	87.217369	1.055242	0.007832	237
8114.079232	87.218163	1.055601	0.007662	239
8116.163072	87.208458	1.056644	0.007560	241
8118.246912	87.220093	1.056643	0.007633	243
8120.330752	87.211082	1.056162	0.007675	245
8122.415616	87.224251	1.056333	0.007839	247
8124.499456	87.223946	1.056036	0.008179	249
8126.583808	87.213242	1.056647	0.008198	251
8128.668160	87.240707	1.055535	0.008117	253
8130.752512	87.235565	1.052631	0.008394	255
8132.836352	87.262192	1.053887	0.008160	1
8134.921216	87.235207	1.054958	0.008254	3
8137.005056	87.247986	1.054046	0.008356	5
8139.089408	87.270615	1.055128	0.008534	7
8141.173248	87.242485	1.056024	0.008639	9
8143.258112	87.257927	1.056374	0.008774	11
8145.342464	87.283028	1.054335	0.008877	13
8147.426304	87.284355	1.055019	0.008777	15
8149.511168	87.287262	1.054602	0.008867	17
8151.595520	87.275749	1.056145	0.008790	19
8153.680384	87.282806	1.055096	0.009146	21
8155.764736	87.299011	1.055704	0.009001	23
8157.849088	87.282791	1.055377	0.008939	25
8159.933440	87.283951	1.055296	0.009171	27
8162.017792	87.296288	1.054895	0.009272	29
8164.102656	87.290520	1.055972	0.009302	31
8166.187008	87.301178	1.055808	0.009330	33
8168.271360	87.299957	1.055043	0.009438	35
8170.355712	87.274666	1.056090	0.009622	37
8172.440576	87.293732	1.054019	0.009545	39
8174.524928	87.314926	1.055294	0.009536	41
8176.609280	87.293678	1.055740	0.009705	43
8178.693120	87.299149	1.055868	0.009719	45
8180.777984	87.282700	1.055517	0.009679	47
8182.861824	87.313713	1.054248	0.009708	49
8184.946688	87.308868	1.055918	0.009695	51
8187.031040	87.301414	1.055924	0.009943	53
8189.114880	87.304848	1.054069	0.009880	55
8191.199232	87.321663	1.054615	0.009824	57
8193.283584	87.302620	1.054354	0.010049	59
8195.367936	87.342308	1.054255	0.010060	61
8197.452288	87.340141	1.053380	0.009932	63
8199.536128	87.342049	1.053713	0.009971	65
8201.620992	87.305824	1.054415	0.009253	67
8203.704832	87.472862	1.053967	0.009550	69
8205.788672	87.363853	1.055474	0.009768	71
8207.872512	87.360405	1.055430	0.009753	73
8209.957376	87.392296	1.053514	0.009702	75
8212.041728	87.336945	1.053950	0.009270	77
8214.126080	87.409569	1.053352	0.009144	79
8216.210432	87.367882	1.054124	0.008942	81
8218.294272	87.337769	1.052936	0.008880	83
8220.379136	87.341278	1.053010	0.008510	85
8222.462976	87.379051	1.052125	0.008369	87
8224.547328	87.379372	1.051790	0.008431	89
8226.632192	87.378090	1.052324	0.008414	91
8228.716544	87.349907	1.053753	0.008373	93
8230.800896	87.351212	1.053359	0.008332	95
8232.885248	87.354225	1.053163	0.008416	97
8234.970112	87.349037	1.053383	0.008197	99
8237.054464	87.368423	1.053292	0.007969	101
8239.138816	87.340057	1.053721	0.007921	103
8241.223168	87.348488	1.053788	0.008085	105
8243.308032	87.331284	1.053818	0.007726	107
8245.392384	87.256516	1.052803	0.007878	109
8247.477248	87.368408	1.050944	0.007358	111
8249.561600	87.324425	1.054048	0.008067	113
8251.645952	87.340820	1.054206	0.008017	115
8253.729792	87.340805	1.052045	0.008159	117
8255.814656	87.341423	1.054459	0.008233	119
8257.899008	87.325294	1.054316	0.008525	121
8259.982848	87.359589	1.055240	0.008296	123
8262.067200	87.329521	1.056121	0.008443	125
8264.151552	87.359215	1.055724	0.008449	127
8266.235904	87.340584	1.056727	0.008737	129
8268.320256	87.340446	1.056254	0.008658	131
8270.404608	87.387459	1.055022	0.008692	133
8272.488960	87.356651	1.055452	0.008782	135
8274.572800	87.370331	1.056491	0.008829	137
8276.657152	87.359390	1.057203	0.009047	139
8278.741504	87.374611	1.055488	0.008991	141
8280.825856	87.364563	1.056312	0.009252	143
8282.910208	87.375130	1.056944	0.009101	145
8284.994560	87.384163	1.056501	0.009069	147
8287.079424	87.352859	1.054999	0.009044	149
8289.163264	87.381294	1.055685	0.008648	151
8291.247616	87.376259	1.056537	0.008860	153
8293.332480	87.365517	1.056888	0.008197	155
8295.416320	87.326080	1.056747	0.008575	157
8297.501184	87.340691	1.056469	0.007871	159
8299.585536	87.384773	1.056204	0.007963	161
8301.670400	87.334892	1.056074	0.007624	163
8303.754240	87.350029	1.055712	0.007651	165
8305.838592	87.318542	1.054309	0.007580	167
8307.923456	87.315239	1.053798	0.007413	169
8310.007808	87.336739	1.054188	0.007245	171
8312.092160	87.323074	1.054854	0.007074	173
8314.176512	87.343857	1.055592	0.007043	175
8316.260864	87.287659	1.056036	0.006959	177
8318.345216	87.284065	1.055643	0.006937	179
8320.429056	87.303452	1.054231	0.006876	181
8322.513408	87.317665	1.055138	0.007147	183
8324.597760	87.324020	1.055189	0.006849	185
8326.682624	87.302376	1.054671	0.006981	187
8328.766464	87.269005	1.054694	0.007313	189
8330.850304	87.323997	1.054976	0.006633	191
8332.934656	87.295105	1.055388	0.006760	193
8335.019008	87.292854	1.056146	0.006759	195
8337.103360	87.299919	1.054099	0.006779	197
8339.187712	87.288254	1.055089	0.006712	199
8341.271552	87.284393	1.055153	0.006775	201
8343.355904	87.320869	1.055015	0.006506	203
8345.440256	87.258209	1.055523	0.006794	205
8347.525120	87.297058	1.053891	0.007032	207
8349.609472	87.279030	1.054741	0.007232	209
8351.693312	87.264977	1.054129	0.007279	211
8353.777664	87.331589	1.054671	0.007613	213
8355.862016	87.273109	1.054375	0.007922	215
8357.946880	87.317291	1.053093	0.008032	217
8360.031232	87.305656	1.053077	0.008238	219
8362.115584	87.288483	1.054487	0.008472	221
8364.199936	87.281189	1.053714	0.009058	223
8366.284800	87.292343	1.053999	0.008488	225
8368.369152	87.283859	1.053189	0.008331	227
8370.453504	87.283989	1.053255	0.007993	229
8372.537856	87.298813	1.054821	0.008014	231
8374.621696	87.292709	1.056040	0.007931	233
8376.706560	87.251259	1.055470	0.007715	235
8378.790400	87.272766	1.055387	0.008061	237
8380.875264	87.318512	1.054127	0.007903	239
8382.959104	87.269814	1.055126	0.008468	241
8385.043968	87.318756	1.056655	0.008723	243
8387.127808	87.328590	1.056558	0.008990	245
8389.212672	87.311516	1.055025	0.009108	247
8391.296512	87.315819	1.054640	0.008902	249
8393.380352	87.300896	1.054357	0.008806	251
8395.465216	87.298393	1.054608	0.008882	253
8397.549056	87.306862	1.054861	0.008748	255
8399.632896	87.274132	1.054829	0.008877	1
8401.717248	87.326736	1.054908	0.008793	3
8403.801600	87.310371	1.055152	0.008826	5
8405.885952	87.299355	1.056421	0.008918	7
8407.970304	87.294449	1.055289	0.009051	9
8410.054656	87.336700	1.055340	0.008982	11
8412.139008	87.340477	1.055064	0.009056	13
8414.222848	87.323021	1.055864	0.009396	15
8416.307200	87.317894	1.056691	0.009367	17
8418.392064	87.347420	1.054970	0.009462	19
8420.476416	87.322838	1.055138	0.009397	21
8422.560768	87.343933	1.054851	0.009465	23
8424.646144	87.334473	1.053163	0.009000	25
8426.730496	87.297951	1.052944	0.009746	27
8428.814336	87.328995	1.053896	0.009494	29
8430.898688	87.343529	1.054382	0.009605	31
8432.983040	87.325836	1.054562	0.009726	33
8435.067904	87.342567	1.053523	0.009778	35
8437.151744	87.369469	1.054921	0.009999	37
8439.236608	87.356445	1.055107	0.009880	39
8441.320960	87.341499	1.055208	0.009967	41
8443.404800	87.299454	1.055158	0.009988	43
8445.489152	87.362808	1.053569	0.009599	45
8447.573504	87.357513	1.054828	0.009604	47
8449.657344	87.361229	1.054393	0.009617	49
8451.742208	87.346519	1.055737	0.009806	51
8453.826560	87.357193	1.056992	0.009330	53
8455.910912	87.349930	1.056559	0.009118	55
8457.994752	87.367996	1.055123	0.008865	57
8460.079104	87.372421	1.056027	0.008598	59
8462.163456	87.343620	1.055414	0.008284	61
8464.247296	87.375916	1.055464	0.008035	63
8466.331136	87.327919	1.056639	0.007981	65
8468.415488	87.346672	1.057493	0.008201	67
8470.499840	87.367950	1.057005	0.008210	69
8472.584192	87.373581	1.057924	0.008013	71
8474.668544	87.378632	1.058537	0.008347	73
8476.752896	87.364693	1.058517	0.008503	75
8478.837760	87.377083	1.056526	0.008879	77
8480.922112	87.393562	1.056302	0.008778	79
8483.006464	87.356247	1.055826	0.009030	81
8485.090816	87.354500	1.056146	0.009057	83
8487.175168	87.364418	1.056841	0.008821	85
8489.259520	87.360085	1.055447	0.008983	87
8491.344384	87.384483	1.054772	0.008912	89
8493.428736	87.368988	1.054582	0.008886	91
8495.512576	87.319611	1.055926	0.008679	93
8497.596928	87.354988	1.054552	0.008575	95
8499.681792	87.344704	1.055137	0.008225	97
8501.765632	87.335068	1.056692	0.008085	99
8503.850496	87.330482	1.056898	0.007888	101
8505.934848	87.333588	1.055352	0.007917	103
8508.018688	87.347725	1.055379	0.007940	105
8510.103040	87.334015	1.056084	0.007620	107
8512.187392	87.350479	1.055764	0.007677	109
8514.271744	87.334129	1.056511	0.007658	111
8516.356096	87.358292	1.055495	0.007641	113
8518.440448	87.340622	1.056014	0.007357	115
8520.524288	87.364113	1.055570	0.007541	117
8522.608640	87.367332	1.054803	0.007180	119
8524.692992	87.316795	1.055086	0.007279	121
8526.777344	87.338768	1.053801	0.007288	123
8528.861696	87.379639	1.054689	0.007227	125
8530.946048	87.337372	1.055578	0.007496	127
8533.029888	87.320511	1.055111	0.007670	129
8535.114752	87.327286	1.052904	0.007914	131
8537.198080	87.317917	1.054044	0.008223	133
8539.282944	87.365105	1.054336	0.007948	135
8541.367296	87.346107	1.053349	0.008404	137
8543.451136	87.358414	1.054240	0.008382	139
8545.536000	87.343002	1.054380	0.008325	141
8547.620864	87.362190	1.054735	0.008668	143
8549.704704	87.326630	1.053428	0.008816	145
8551.789568	87.377769	1.052335	0.008494	147
8553.873408	87.357376	1.053017	0.008952	149
8555.957760	87.351524	1.051194	0.009035	151
8558.042624	87.360260	1.053935	0.009019	153
8560.126464	87.358009	1.054815	0.009068	155
8562.211328	87.361198	1.056544	0.008966	157
8564.295168	87.330711	1.055745	0.008966	159
8566.379520	87.343605	1.054941	0.008728	161
8568.463872	87.360245	1.055162	0.008876	163
8570.548736	87.362282	1.055728	0.008870	165
8572.633088	87.365791	1.054726	0.009065	167
8574.717440	87.340706	1.055481	0.008695	169
8576.801792	87.365822	1.055279	0.009075	171
8578.886144	87.394073	1.056316	0.009263	173
8580.969984	87.354492	1.056434	0.009388	175
8583.054336	87.361557	1.056890	0.009524	177
8585.138688	87.375931	1.054042	0.009391	179
8587.223040	87.382927	1.054286	0.009348	181
8589.306880	87.405617	1.054312	0.009347	183
8591.391744	87.379173	1.055374	0.009323	185
8593.475584	87.408188	1.055279	0.009392	187
8595.560448	87.393753	1.055485	0.009570	189
8597.645312	87.388557	1.055980	0.009501	191
8599.729152	87.393318	1.055651	0.009540	193
8601.812992	87.399467	1.053212	0.009554	195
8603.896832	87.409119	1.055261	0.009463	197
8605.981696	87.424828	1.056141	0.009477	199
8608.066560	87.394516	1.055081	0.009537	201
8610.150400	87.414848	1.055159	0.009533	203
8612.234240	87.428581	1.052360	0.009530	205
8614.319104	87.431114	1.053373	0.009500	207
8616.403968	87.449898	1.053276	0.009444	209
8618.487808	87.421402	1.053775	0.009316	211
8620.571648	87.433098	1.050468	0.009429	213
8622.656512	87.440216	1.052990	0.009272	215
8624.740352	87.419823	1.053700	0.009297	217
8626.825216	87.438065	1.054822	0.009310	219
8628.910080	87.433243	1.054809	0.009251	221
8630.993920	87.418091	1.053317	0.009280	223
8633.077760	87.451897	1.054336	0.009149	225
8635.162624	87.434769	1.054893	0.009264	227
8637.247488	87.436127	1.053867	0.009421	229
8639.331328	87.461426	1.054512	0.009260	231
8641.415168	87.475281	1.054460	0.009387	233
8643.500032	87.442635	1.054400	0.009322	235
8645.584896	87.441002	1.053519	0.009331	237
8647.668736	87.478493	1.053333	0.009515	239
8649.753600	87.471619	1.054732	0.009585	241
8651.837440	87.481537	1.054893	0.009527	243
8653.922304	87.493118	1.054430	0.009560	245
8656.006144	87.491714	1.055593	0.009529	247
8658.091008	87.456192	1.054784	0.009404	249
8660.174848	87.498756	1.053246	0.009613	251
8662.258688	87.504204	1.052737	0.009344	253
8664.343552	87.519302	1.053075	0.009692	255
8666.427392	87.470245	1.054170	0.009523	1
8668.512256	87.450897	1.054410	0.009186	3
8670.596096	87.493004	1.052524	0.009445	5
8672.680960	87.516899	1.052679	0.009214	7
8674.764800	87.495674	1.053867	0.009170	9
8676.848640	87.491386	1.053195	0.009240	11
8678.932480	87.494232	1.053850	0.008809	13
8681.018368	87.474678	1.053288	0.008468	15
8683.102208	87.492599	1.053864	0.008143	17
8685.186048	87.488647	1.054841	0.008194	19
8687.269888	87.503723	1.053770	0.008507	21
8689.354752	87.470390	1.054418	0.008038	23
8691.439616	87.472069	1.053734	0.008005	25
8693.523456	87.439346	1.054308	0.007993	27
8695.607296	87.449936	1.053287	0.007654	29
8697.693184	87.424210	1.053247	0.007535	31
8699.776000	87.457558	1.053688	0.007532	33
8701.860864	87.455971	1.053134	0.007430	35
8703.945728	87.473282	1.051796	0.007148	37
8706.029568	87.453011	1.052916	0.007078	39
8708.113408	87.444153	1.053700	0.007356	41
8710.198272	87.427315	1.054215	0.006829	43
8712.282112	87.459679	1.055290	0.006946	45
8714.366976	87.406151	1.054246	0.007156	47
8716.450816	87.405991	1.054377	0.007284	49
8718.534656	87.408104	1.054449	0.007437	51
8720.619520	87.427742	1.054495	0.007705	53
8722.703360	87.461540	1.054489	0.007655	55
8724.788224	87.438660	1.054603	0.007875	57
8726.872064	87.457161	1.054167	0.008334	59
8728.955904	87.430412	1.053207	0.008233	61
8731.040768	87.468201	1.053431	0.007838	63
8733.124608	87.433434	1.053419	0.007965	65
8735.209472	87.438858	1.053997	0.007915	67
8737.294336	87.456718	1.053769	0.007917	69
8739.377152	87.439568	1.053693	0.007753	71
8741.462016	87.483315	1.054664	0.007568	73
8743.546880	87.473022	1.053210	0.007560	75
8745.630720	87.434608	1.052956	0.007487	77
8747.715584	87.432533	1.051761	0.007346	79
8749.799424	87.408592	1.052871	0.007307	81
8751.883264	87.417564	1.052910	0.007122	83
8753.968128	87.418152	1.053194	0.007202	85
8756.051968	87.419731	1.052177	0.007227	87
8758.136832	87.419510	1.053450	0.007440	89
8760.221696	87.433060	1.053398	0.007587	91
8762.305536	87.412117	1.053152	0.007871	93
8764.390400	87.426079	1.053730	0.007936	95
8766.474240	87.445206	1.054298	0.008001	97
8768.558080	87.464935	1.053798	0.007899	99
8770.642944	87.416412	1.053926	0.008029	101
8772.727808	87.421074	1.053227	0.008071	103
8774.811648	87.432404	1.053126	0.008077	105
8776.896512	87.444633	1.053447	0.007776	107
8778.980352	87.415817	1.054392	0.008094	109
8781.065216	87.416832	1.053103	0.008359	111
8783.149056	87.459656	1.054466	0.008350	113
8785.233920	87.439796	1.054782	0.008442	115
8787.317760	87.448921	1.054446	0.008443	117
8789.402624	87.418114	1.054033	0.008556	119
8791.486464	87.427307	1.054750	0.008493	121
8793.570304	87.454346	1.054555	0.008840	123
8795.655168	87.442329	1.053281	0.008808	125
8797.740032	87.443962	1.054810	0.008890	127
8799.823872	87.468582	1.054533	0.008941	129
8801.907712	87.460220	1.052398	0.008770	131
8803.991552	87.525658	1.053180	0.008665	133
8806.076416	87.427689	1.053099	0.009366	135
8808.161280	87.442154	1.052841	0.008902	137
8810.245120	87.471573	1.052570	0.008843	139
8812.328960	87.447372	1.052175	0.009017	141
8814.412800	87.478561	1.052073	0.009027	143
8816.497664	87.468445	1.052958	0.009300	145
8818.582528	87.453354	1.052567	0.009036	147
8820.666368	87.468552	1.053421	0.009147	149
8822.751232	87.538643	1.053185	0.009096	151
8824.835072	87.501541	1.053864	0.009141	153
8826.919936	87.396355	1.053523	0.008868	155
8829.004800	87.493111	1.053149	0.009150	157
8831.088640	87.470718	1.053536	0.008976	159
8833.173504	87.416306	1.053670	0.009898	161
8835.257344	87.495384	1.054116	0.009426	163
8837.341184	87.526932	1.054021	0.009405	165
8839.425024	87.501686	1.054098	0.009441	167
8841.510912	87.496948	1.056173	0.009647	169
8843.594752	87.538040	1.055615	0.009682	171
8845.679616	87.471794	1.055328	0.009292	173
8847.763456	87.473640	1.055602	0.009110	175
8849.847296	87.498100	1.055685	0.008787	177
8851.932160	87.525757	1.054893	0.008615	179
8854.016000	87.443817	1.054995	0.008848	181
8856.100864	87.492950	1.054390	0.008899	183
8858.184704	87.476082	1.054751	0.008356	185
8860.269568	87.495514	1.055671	0.008023	187
8862.354432	87.480927	1.055401	0.008019	189
8864.437248	87.493134	1.054819	0.007786	191
8866.522112	87.490814	1.055392	0.007692	193
8868.605952	87.466606	1.055780	0.007922	195
8870.690816	87.495628	1.053476	0.008005	197
8872.774656	87.496841	1.054148	0.008315	199
8874.859520	87.483833	1.052976	0.008948	201
8876.943360	87.518066	1.053410	0.008189	203
8879.027200	87.447548	1.052870	0.008536	205
8881.112064	87.445259	1.053247	0.008241	207
8883.195904	87.490997	1.053490	0.008574	209
8885.280768	87.491905	1.052428	0.008793	211
8887.364608	87.506706	1.053313	0.008689	213
8889.448448	87.504929	1.053719	0.008926	215
8891.532288	87.483406	1.054620	0.008556	217
8893.617152	87.488876	1.052604	0.008550	219
8895.700992	87.476273	1.053406	0.008206	221
8897.785856	87.488922	1.053337	0.008025	223
8899.869696	87.496452	1.051761	0.007832	225
8901.954560	87.469902	1.053497	0.007963	227
8904.039424	87.499634	1.052030	0.008304	229
8906.123264	87.449074	1.052610	0.007918	231
8908.207104	87.554504	1.051343	0.008145	233
8910.291968	87.515686	1.052316	0.008499	235
8912.376832	87.493141	1.053230	0.008529	237
8914.460672	87.487267	1.053443	0.008639	239
8916.544512	87.446922	1.053651	0.009038	241
8918.629376	87.492271	1.054871	0.008797	243
8920.714240	87.481071	1.056437	0.008841	245
8922.798080	87.502815	1.055229	0.008775	247
8924.881920	87.533516	1.055514	0.008821	249
8926.966784	87.489746	1.056294	0.008889	251
8929.051648	87.509117	1.056006	0.008733	253
8931.135488	87.481735	1.056462	0.008515	255
8933.219328	87.446762	1.053978	0.008068	1
8935.304192	87.513817	1.056438	0.008545	3
8937.389056	87.479973	1.056926	0.008639	5
8939.473920	87.544601	1.056443	0.008879	7
8941.556736	87.479103	1.056333	0.009342	9
8943.642624	87.544922	1.053920	0.008924	11
8945.726464	87.511627	1.053679	0.008848	13
8947.810304	87.543037	1.053861	0.008802	15
8949.895168	87.521683	1.054327	0.008897	17
8951.979008	87.548386	1.055014	0.008984	19
8954.062848	87.516777	1.054346	0.009054	21
8956.147712	87.512772	1.055342	0.008734	23
8958.231552	87.560295	1.053224	0.009045	25
8960.316416	87.576523	1.054015	0.008884	27
8962.400256	87.566765	1.053287	0.008927	29
8964.484096	87.563438	1.053247	0.008953	31
8966.568960	87.553566	1.052075	0.008940	33
8968.652800	87.579285	1.051897	0.008996	35
8970.737664	87.572029	1.052238	0.008949	37
8972.821504	87.547394	1.052424	0.009060	39
8974.906368	87.588173	1.053329	0.009009	41
8976.990208	87.585091	1.052251	0.009163	43
8979.075072	87.633820	1.052436	0.009380	45
8981.158912	87.611832	1.051682	0.009141	47
8983.243776	87.605553	1.051900	0.009180	49
8985.327616	87.599121	1.052509	0.009185	51
8987.412480	87.557358	1.052581	0.009191	53
8989.497344	87.608170	1.052804	0.009159	55
8991.581184	87.609100	1.052435	0.009232	57
8993.666048	87.634048	1.051821	0.009122	59
8995.749888	87.667412	1.051799	0.009297	61
8997.834752	87.648727	1.052587	0.009285	63
8999.918592	87.592506	1.052174	0.009605	65
9002.003456	87.619164	1.052783	0.009136	67
9004.088320	87.595741	1.052796	0.008990	69
9006.172160	87.594757	1.052785	0.008928	71
9008.257024	87.623131	1.052998	0.008689	73
9010.340864	87.614410	1.051750	0.008594	75
9012.424704	87.574387	1.052995	0.008166	77
9014.509568	87.602890	1.053774	0.007841	79
9016.593408	87.589577	1.053952	0.007796	81
9018.678272	87.599464	1.054603	0.007791	83
9020.762112	87.547432	1.054812	0.007645	85
9022.845952	87.589783	1.053064	0.007636	87
9024.930816	87.617126	1.054330	0.007852	89
9027.015680	87.560005	1.054908	0.007966	91
9029.099520	87.587418	1.054004	0.008184	93
9031.183360	87.569519	1.055395	0.008215	95
9033.268224	87.599747	1.052539	0.008215	97
9035.352064	87.580559	1.053782	0.007947	99
9037.436928	87.612785	1.053418	0.007908	101
9039.520768	87.597763	1.053687	0.007768	103
9041.605632	87.585785	1.053969	0.007878	105
9043.689472	87.623871	1.052379	0.008085	107
9045.774336	87.620941	1.053858	0.008465	109
9047.858176	87.625961	1.054577	0.008069	111
9049.943040	87.540932	1.056090	0.008832	113
9052.026880	87.613625	1.056100	0.008632	115
9054.110720	87.604584	1.054887	0.009134	117
9056.195584	87.616402	1.054927	0.009068	119
9058.280448	87.654854	1.055643	0.009108	121
9060.364288	87.621956	1.054972	0.009139	123
9062.448128	87.616524	1.054318	0.009409	125
9064.532992	87.613434	1.055755	0.009349	127
9066.616832	87.627075	1.054723	0.009320	129
9068.700672	87.657166	1.054699	0.009391	131
9070.785536	87.632530	1.055027	0.009430	133
9072.870400	87.635826	1.055167	0.009565	135
9074.954240	87.626495	1.054688	0.009609	137
9077.039104	87.629784	1.055371	0.009653	139
9079.122944	87.622559	1.054860	0.009515	141
9081.206784	87.636345	1.054207	0.009508	143
9083.291648	87.655937	1.053337	0.009259	145
9085.375488	87.668404	1.053642	0.009348	147
9087.460352	87.654076	1.053427	0.009497	149
9089.544192	87.692780	1.053552	0.009542	151
9091.628032	87.665665	1.052926	0.009345	153
9093.712896	87.636292	1.053700	0.009359	155
9095.796736	87.668854	1.051208	0.009583	157
9097.881600	87.645973	1.053000	0.009273	159
9099.966464	87.695045	1.052771	0.009430	161
9102.050304	87.671875	1.053363	0.009300	163
9104.134144	87.722366	1.052828	0.009388	165
9106.217984	87.685791	1.054038	0.009476	167
9108.303872	87.688187	1.054418	0.009413	169
9110.386688	87.697868	1.052680	0.009555	171
9112.471552	87.718925	1.053515	0.009385	173
9114.556416	87.680763	1.053373	0.009433	175
9116.640256	87.734871	1.053135	0.009484	177
9118.725120	87.745911	1.053563	0.009363	179
9120.808960	87.687401	1.054457	0.009001	181
9122.893824	87.717766	1.054835	0.009313	183
9124.978688	87.706161	1.055072	0.009187	185
9127.062528	87.718910	1.054479	0.009325	187
9129.147392	87.728889	1.054831	0.009396	189
9131.231232	87.722580	1.054142	0.009668	191
9133.316096	87.732735	1.054788	0.009742	193
9135.399936	87.696358	1.054723	0.009800	195
9137.483776	87.731270	1.053705	0.009607	197
9139.568640	87.708260	1.054353	0.009498	199
9141.652480	87.738129	1.055042	0.009130	201
9143.737344	87.730621	1.054698	0.008953	203
9145.822208	87.724731	1.054085	0.008723	205
9147.906048	87.737938	1.054789	0.008689	207
9149.989888	87.711296	1.055385	0.008550	209
9152.073728	87.803284	1.055251	0.008437	211
9154.158592	87.728142	1.054443	0.008965	213
9156.242432	87.696358	1.055617	0.008899	215
9158.327296	87.731873	1.056177	0.008998	217
9160.411136	87.720520	1.055157	0.009199	219
9162.496000	87.751381	1.054035	0.009316	221
9164.579840	87.749245	1.053770	0.008917	223
9166.664704	87.762413	1.053643	0.008963	225
9168.748544	87.751511	1.052667	0.008912	227
9170.833408	87.752480	1.052853	0.008916	229
9172.917248	87.784737	1.052829	0.009014	231
9175.002112	87.758400	1.052503	0.008926	233
9177.085952	87.802521	1.052862	0.008977	235
9179.170816	87.790924	1.052817	0.009314	237
9181.254656	87.786194	1.053669	0.009236	239
9183.339520	87.770226	1.053746	0.009312	241
9185.423360	87.790985	1.054457	0.008545	243
9187.508224	87.769844	1.052755	0.009512	245
9189.592064	87.801308	1.053295	0.009685	247
9191.676928	87.817146	1.054561	0.009430	249
9193.761792	87.775688	1.055285	0.009647	251
9195.845632	87.786880	1.055726	0.009483	253
9197.930496	87.787132	1.055127	0.009415	255
9200.014336	87.786621	1.054166	0.009610	1
9202.099200	87.838127	1.053998	0.009463	3
9204.184064	87.790024	1.056080	0.008984	5
9206.267904	87.758080	1.056088	0.008855	7
9208.352768	87.827087	1.055791	0.008491	9
9210.436608	87.763748	1.055769	0.008535	11
9212.520448	87.720551	1.055610	0.008458	13
9214.605312	87.756180	1.056631	0.008315	15
9216.689152	87.788879	1.056304	0.008442	17
9218.774016	87.766602	1.054960	0.008013	19
9220.857856	87.843109	1.054016	0.008258	21
9222.942720	87.795891	1.053812	0.008609	23
9225.026560	87.815613	1.053866	0.008625	25
9227.111424	87.797928	1.053786	0.008758	27
9229.194240	87.784363	1.055015	0.008847	29
9231.279104	87.773651	1.055290	0.008819	31
9233.362944	87.857452	1.054901	0.009038	33
9235.447808	87.789459	1.055759	0.008637	35
9237.531648	87.786125	1.055683	0.008852	37
9239.615488	87.877876	1.055753	0.008737	39
9241.700352	87.824265	1.056208	0.008552	41
9243.784192	87.766663	1.054811	0.008918	43
9245.869056	87.823387	1.055421	0.008616	45
9247.952896	87.829056	1.054292	0.008792	47
9250.037760	87.744080	1.055391	0.008786	49
9252.121600	87.820541	1.054537	0.008008	51
9254.207488	87.857178	1.055410	0.008449	53
9256.291328	87.721558	1.055326	0.008005	55
9258.375168	87.785637	1.055168	0.007416	57
9260.460032	87.758453	1.055697	0.007390	59
9262.543872	87.792664	1.054702	0.007155	61
9264.627712	87.788551	1.054665	0.007308	63
9266.713600	87.782066	1.055121	0.007327	65
9268.797440	87.788208	1.055710	0.007566	67
9270.882304	87.760773	1.054812	0.007632	69
9272.966144	87.805367	1.052527	0.007811	71
9275.051008	87.797005	1.053988	0.007842	73
9277.134848	87.782776	1.054004	0.008002	75
9279.219712	87.768311	1.054222	0.008154	77
9281.303552	87.766220	1.053418	0.008423	79
9283.388416	87.789879	1.054659	0.008127	81
9285.472256	87.784966	1.054633	0.008258	83
9287.556096	87.800400	1.055629	0.008304	85
9289.640960	87.751900	1.056599	0.008049	87
9291.724800	87.762825	1.057150	0.008013	89
9293.808640	87.789940	1.054897	0.008063	91
9295.893504	87.802414	1.056301	0.007747	93
9297.978368	87.798286	1.055615	0.007685	95
9300.061184	87.792603	1.055735	0.007717	97
9302.146048	87.788261	1.055672	0.007774	99
9304.230912	87.772636	1.055624	0.007717	101
9306.314752	87.786118	1.054812	0.007530	103
9308.398592	87.781342	1.055059	0.007376	105
9310.483456	87.776947	1.053611	0.007303	107
9312.568320	87.779305	1.053596	0.007183	109
9314.652160	87.783882	1.053486	0.006978	111
9316.736000	87.784462	1.055043	0.007000	113
9318.820864	87.774193	1.056087	0.006957	115
9320.904704	87.776627	1.055770	0.007382	117
9322.988544	87.850182	1.056392	0.007191	119
9325.073408	87.772919	1.056651	0.007516	121
9327.158272	87.746277	1.056464	0.007653	123
9329.242112	87.761032	1.054561	0.007517	125
9331.326976	87.772247	1.055406	0.007478	127
9333.410816	87.759171	1.054121	0.007235	129
9335.495680	87.761803	1.054070	0.007240	131
9337.580544	87.757690	1.053651	0.006796	133
9339.664384	87.752815	1.054283	0.006821	135
9341.748224	87.739197	1.055529	0.006874	137
